##TITLE= Mattson Instruments
##JCAMP_DX= 4.24
##OWNER= 
##ORIGIN= 
##DATA TYPE= INFRARED SPECTRUM
##YUNITS= % Transmittance
##XUNITS= 1/CM
##FIRSTX= 401.12781972
##FIRSTY= 64.63568878
##LASTX= 3999.70720246
##XFACTOR= 1.00000000
##YFACTOR= 0.00111241
##MINY= 0.00000102
##MAXY= 72.90124511
##DELTAX= 3.85699826
##NPOINTS= 934
##XYDATA= (X++(Y..Y))
401.12  58103 57884 58159 58782 59557 60271 
424.26  60760 60964 60914 60658 60299 59890 
447.41  59391 58778 58103 58641 59168 59586 
470.55  59939 60331 60716 60979 61175 61375 
493.69  61514 61512 61369 61000 60251 59325 
516.83  58868 59344 60440 61465 62114 62498 
539.97  62752 62905 62991 63046 63047 62983 
563.12  62858 62635 62254 61651 60692 59346 
586.26  58103 57430 58103 59904 61539 62610 
609.40  63241 63631 63872 64022 64133 64219 
632.54  64283 64334 64372 64372 64342 64356 
655.68  64418 64385 64165 63949 64017 64280 
678.83  64460 64504 64546 64642 64739 64808 
701.97  64851 64859 64830 64773 64698 64615 
725.11  64505 64324 64055 63658 63020 62091 
748.25  61043 60151 59646 59765 60632 61953 
771.39  63126 63812 64143 64359 64534 64669 
794.54  64795 64918 65026 65127 65220 65290 
817.68  65340 65385 65420 65444 65464 65484 
840.82  65508 65532 65534 65498 65468 65473 
863.96  65449 65323 65150 65077 65134 65195 
887.10  65160 65042 64891 64705 64467 64157 
910.25  63744 63184 62399 61280 59797 58103 
933.39  56365 54859 53751 53276 53659 54858 
956.53  56499 58103 59447 60420 61075 61471 
979.67  61658 61623 61325 60887 60658 60902 
1002.81  61485 62020 62278 62325 62337 62406 
1025.96  62528 62661 62759 62786 62747 62680 
1049.10  62603 62504 62373 62180 61870 61410 
1072.24  60792 59946 58908 58103 58103 59035 
1095.38  60163 60837 61046 61149 61338 61558 
1118.52  61714 61759 61681 61478 61124 60534 
1141.67  59574 58103 55966 52972 48566 42263 
1164.81  34786 28584 26437 29204 35161 41587 
1187.95  46667 49953 51701 52367 52598 53155 
1211.09  54462 56302 58103 59458 60364 60934 
1234.23  61244 61339 61250 60982 60584 60208 
1257.38  60040 60150 60439 60782 61123 61424 
1280.52  61616 61659 61568 61354 60993 60459 
1303.66  59737 58890 58103 57529 56996 56208 
1326.80  54940 52977 50135 46642 43194 40223 
1349.94  37397 33941 29496 25157 23221 24973 
1373.09  29433 34644 39422 43479 46436 47824 
1396.23  47826 46918 45127 42506 39695 37736 
1419.37  37567 38913 40501 41704 42676 43493 
1442.51  43886 43690 42904 41752 41299 42682 
1465.65  45483 48683 51551 53658 55025 55870 
1488.80  56423 56969 57498 57736 57701 57792 
1511.94  58103 58314 58383 58655 59176 59532 
1535.08  59493 59338 59677 60326 60649 60532 
1558.22  60453 60836 61272 61435 61488 61713 
1581.36  62057 62303 62405 62463 62537 62593 
1604.51  62597 62539 62378 62133 61963 61941 
1627.65  61900 61714 61484 61322 61076 60563 
1650.79  59997 59822 59773 59258 58103 56596 
1673.93  55188 53961 52672 50927 48444 44704 
1697.07  37913 27085 16235 8306 2700 0 
1720.22  1565 6460 13899 23639 32886 38814 
1743.36  42512 45611 48403 50929 53293 55300 
1766.50  56829 58103 59292 60333 61136 61682 
1789.64  62023 62329 62724 63131 63440 63666 
1812.78  63867 64026 64065 63993 63987 64151 
1835.93  64304 64277 64184 64232 64392 64489 
1859.07  64440 64282 64138 64140 64261 64342 
1882.21  64299 64203 64163 64218 64317 64394 
1905.35  64427 64433 64422 64393 64385 64441 
1928.49  64530 64575 64549 64503 64506 64566 
1951.64  64630 64654 64645 64635 64636 64649 
1974.78  64670 64684 64672 64641 64627 64657 
1997.92  64716 64763 64780 64772 64752 64737 
2021.06  64741 64754 64749 64726 64706 64695 
2044.20  64688 64682 64672 64649 64616 64589 
2067.35  64578 64570 64549 64503 64435 64357 
2090.49  64278 64201 64122 64041 63967 63908 
2113.63  63861 63822 63799 63813 63866 63941 
2136.77  64014 64071 64106 64121 64123 64117 
2159.91  64110 64108 64113 64125 64143 64165 
2183.06  64185 64199 64211 64222 64226 64223 
2206.20  64220 64220 64218 64209 64201 64199 
2229.34  64200 64200 64196 64192 64182 64159 
2252.48  64125 64109 64093 64078 64062 64047 
2275.62  64031 64015 64000 63984 63969 63953 
2298.77  63937 63922 63906 63891 63875 63859 
2321.91  63844 63828 63813 63797 63782 63766 
2345.05  63750 63735 63719 63704 63688 63672 
2368.19  63657 63641 63626 63610 63594 63579 
2391.33  63563 63548 63532 63517 63501 63485 
2414.48  63503 63527 63551 63569 63582 63590 
2437.62  63591 63584 63570 63553 63536 63529 
2460.76  63535 63547 63551 63541 63524 63516 
2483.90  63522 63529 63521 63494 63453 63404 
2507.04  63348 63294 63262 63256 63272 63296 
2530.19  63318 63335 63353 63378 63403 63422 
2553.33  63433 63440 63448 63457 63464 63466 
2576.47  63465 63462 63450 63431 63412 63401 
2599.61  63394 63378 63356 63335 63316 63301 
2622.75  63291 63282 63270 63250 63225 63194 
2645.90  63154 63107 63055 62995 62929 62865 
2669.04  62809 62763 62723 62685 62651 62622 
2692.18  62593 62550 62493 62432 62374 62320 
2715.32  62269 62218 62150 62056 61959 61897 
2738.46  61896 61941 61992 62017 62012 61993 
2761.61  61971 61941 61896 61830 61737 61609 
2784.75  61447 61254 61040 60823 60624 60447 
2807.89  60289 60147 60007 59852 59686 59535 
2831.03  59405 59283 59148 58981 58759 58474 
2854.17  58103 57589 56873 55851 54325 52224 
2877.32  50002 48464 47961 48004 47879 47356 
2900.46  46624 45930 45492 45433 45614 45764 
2923.60  45671 44982 43314 41097 39734 40237 
2946.74  42052 43705 44265 43728 42319 40015 
2969.88  36820 33355 30998 31082 33708 37626 
2993.03  41360 44250 46441 48310 50080 51765 
3016.17  53256 54468 55414 56155 56737 57195 
3039.31  57561 57856 58103 58322 58509 58658 
3062.45  58782 58909 59038 59139 59210 59284 
3085.59  59387 59503 59608 59699 59794 59884 
3108.74  59952 59996 60037 60095 60167 60222 
3131.88  60238 60235 60240 60245 60227 60203 
3155.02  60206 60228 60235 60222 60210 60205 
3178.16  60201 60202 60224 60258 60276 60271 
3201.30  60262 60268 60279 60274 60256 60243 
3224.45  60232 60203 60163 60136 60125 60106 
3247.59  60071 60046 60058 60087 60085 60037 
3270.73  59990 59988 60014 60011 59963 59906 
3293.87  59872 59846 59805 59757 59731 59727 
3317.01  59711 59665 59610 59556 59493 59424 
3340.16  59366 59321 59283 59248 59203 59133 
3363.30  59050 58977 58897 58787 58655 58509 
3386.44  58329 58103 57842 57556 57211 56805 
3409.58  56411 56130 56035 56151 56447 56830 
3432.72  57155 57319 57345 57372 57489 57644 
3455.87  57757 57836 57923 58006 58050 58070 
3479.01  58103 58174 58263 58342 58382 58375 
3502.15  58361 58395 58481 58549 58539 58475 
3525.29  58444 58504 58602 58644 58591 58516 
3548.43  58531 58655 58745 58665 58481 58442 
3571.58  58635 58835 58827 58633 58453 58428 
3594.72  58501 58559 58544 58434 58245 58103 
3617.86  58103 58150 58103 58103 58347 58634 
3641.00  58646 58339 58103 58103 58533 58840 
3664.14  58838 58502 58103 58103 58427 58586 
3687.29  58465 58380 58533 58682 58605 58393 
3710.43  58278 58299 58314 58248 58103 57880 
3733.57  57676 57602 57602 57529 57452 57585 
3756.71  57857 58045 58103 58163 58256 58311 
3779.85  58311 58337 58391 58344 58103 57816 
3803.00  57771 57996 58145 57982 57680 57643 
3826.14  57839 57869 57613 57439 57620 57819 
3849.28  57725 57500 57507 57645 57651 57587 
3872.42  57656 57788 57806 57764 57830 57940 
3895.56  57891 57716 57712 57951 58144 58130 
3918.71  58039 58044 58122 58193 58257 58302 
3941.85  58280 58221 58215 58268 58322 58353 
3964.99  58368 58366 58345 58323 58314 58306 
3988.13  58278 58221 58156 58103 
##END= 
