##TITLE= Mattson Instruments
##JCAMP_DX= 4.24
##OWNER= 
##ORIGIN= 
##DATA TYPE= INFRARED SPECTRUM
##YUNITS= % Transmittance
##XUNITS= 1/CM
##FIRSTX= 401.12781972
##FIRSTY= 52.40176391
##LASTX= 3999.70720246
##XFACTOR= 1.00000000
##YFACTOR= 0.00091511
##MINY= 0.00000102
##MAXY= 59.97093963
##DELTAX= 3.85699826
##NPOINTS= 934
##XYDATA= (X++(Y..Y))
401.12  57262 57561 57657 58076 59350 61367 
424.26  63245 64504 65213 65477 65504 65534 
447.41  65515 65227 64796 64589 64477 63965 
470.55  62992 61755 59862 56824 53504 51833 
493.69  52535 54428 56142 57262 58626 59563 
516.83  60166 60676 61226 61733 62112 62366 
539.97  62505 62561 62631 62774 62933 63028 
563.12  63067 63095 63127 63167 63206 63212 
586.26  63144 63018 62901 62853 62880 62931 
609.40  62956 62927 62870 62824 62771 62632 
632.54  62339 61896 61304 60508 59635 59187 
655.68  59509 60157 60512 60636 61026 61620 
678.83  61988 62105 62238 62480 62718 62888 
701.97  63011 63098 63137 63100 63004 62909 
725.11  62771 62494 62068 61307 59695 57262 
748.25  55334 55379 57262 59471 60985 61833 
771.39  62366 62707 62898 63030 63127 63167 
794.54  63179 63195 63202 63198 63205 63201 
817.68  63164 63134 63113 63001 62780 62581 
840.82  62484 62468 62454 62023 60565 58433 
863.96  57262 58136 59993 61197 61387 60956 
887.10  60030 58921 58131 57262 55524 54012 
910.25  54617 57262 59935 61200 61590 61873 
933.39  62097 62190 62264 62338 62367 62374 
956.53  62360 62314 62267 62203 62099 61980 
979.67  61717 61106 60382 60128 60497 61049 
1002.81  61292 60831 59451 57794 57262 58469 
1025.96  60208 61144 61241 61017 60308 58825 
1049.10  57262 56619 57262 58462 59297 59684 
1072.24  60015 60562 61163 61516 61607 61550 
1095.38  61236 60582 59532 57262 52793 47395 
1118.52  44829 47302 52686 57262 59625 60817 
1141.67  61652 62164 62417 62622 62788 62858 
1164.81  62902 62941 62905 62818 62740 62593 
1187.95  62307 61938 61401 60479 59178 57262 
1211.09  53583 47754 42248 40926 44580 49989 
1234.23  53907 55969 57262 58462 59287 59737 
1257.38  59783 59553 59628 60392 61386 61978 
1280.52  62167 62151 61825 61112 59881 57262 
1303.66  52358 46949 44385 46319 50876 54804 
1326.80  56307 55403 53070 50856 50224 51585 
1349.94  54296 57262 59336 60214 60438 60567 
1373.09  60601 60479 60319 60047 59465 58659 
1396.23  57893 57262 56717 55607 53229 49547 
1419.37  46013 44264 44165 45197 47070 47973 
1442.51  45922 42156 39991 41738 46310 50238 
1465.65  52436 53961 55603 57262 58341 58462 
1488.80  58027 57988 58321 58092 57262 56877 
1511.94  57215 57301 57007 57262 58256 58775 
1535.08  58181 57262 57262 58599 59041 58321 
1558.22  57845 58764 59828 60162 60259 60789 
1581.36  61483 61799 61744 61651 61645 61596 
1604.51  61433 61150 60652 59956 59391 59070 
1627.65  58598 57822 57262 57222 57027 56187 
1650.79  55536 56143 56878 56318 54473 52431 
1673.93  51123 50205 49054 47398 44752 39591 
1697.07  29512 15953 6259 1799 0 1767 
1720.22  8444 17372 26588 35589 42600 46507 
1743.36  48588 50091 51593 53204 54429 54901 
1766.50  55084 55814 57262 58759 59703 59936 
1789.64  59650 59273 59086 59042 59103 59418 
1812.78  60068 60739 60974 60792 60796 61293 
1835.93  61760 61777 61662 61918 62426 62714 
1859.07  62550 62043 61610 61693 62204 62633 
1882.21  62704 62587 62572 62730 62914 62978 
1905.35  62914 62810 62704 62597 62581 62754 
1928.49  62998 63058 62854 62583 62500 62643 
1951.64  62835 62909 62847 62743 62680 62691 
1974.78  62773 62875 62919 62891 62881 62964 
1997.92  63092 63167 63158 63103 63044 63022 
2021.06  63061 63129 63163 63147 63120 63110 
2044.20  63106 63080 62998 62852 62710 62676 
2067.35  62773 62914 63009 63025 62985 62924 
2090.49  62878 62865 62879 62909 62942 62970 
2113.63  62986 62990 62986 62973 62959 62959 
2136.77  62987 63029 63062 63078 63071 63038 
2159.91  62975 62886 62777 62683 62654 62700 
2183.06  62779 62844 62874 62873 62853 62837 
2206.20  62833 62840 62843 62830 62791 62732 
2229.34  62672 62627 62611 62631 62677 62720 
2252.48  62740 62734 62713 62683 62653 62641 
2275.62  62648 62656 62664 62671 62679 62687 
2298.77  62694 62702 62710 62717 62725 62733 
2321.91  62740 62748 62756 62763 62771 62779 
2345.05  62786 62794 62802 62809 62817 62825 
2368.19  62832 62840 62848 62856 62863 62871 
2391.33  62879 62886 62894 62902 62909 62856 
2414.48  62804 62759 62720 62693 62668 62636 
2437.62  62591 62547 62528 62552 62598 62629 
2460.76  62641 62664 62713 62774 62819 62845 
2483.90  62858 62869 62882 62894 62895 62879 
2507.04  62850 62809 62751 62685 62627 62587 
2530.19  62564 62556 62566 62597 62629 62630 
2553.33  62599 62554 62508 62470 62447 62444 
2576.47  62445 62436 62418 62398 62368 62304 
2599.61  62198 62059 61927 61839 61803 61806 
2622.75  61835 61875 61892 61857 61768 61648 
2645.90  61533 61454 61392 61271 61032 60727 
2669.04  60493 60454 60637 60958 61275 61490 
2692.18  61612 61703 61794 61869 61919 61946 
2715.32  61950 61933 61904 61877 61861 61848 
2738.46  61819 61763 61683 61577 61445 61308 
2761.61  61193 61098 60991 60857 60706 60532 
2784.75  60292 59972 59636 59372 59173 58930 
2807.89  58547 57991 57262 56413 55562 54830 
2831.03  54173 53336 51959 49672 46224 41718 
2854.17  36857 32906 31103 31862 34456 37561 
2877.32  40132 41773 42510 42497 41919 40958 
2900.46  39766 38395 36693 34383 31343 27771 
2923.60  24066 20683 18091 16649 16469 17428 
2946.74  19212 21436 23927 26931 30786 35393 
2969.88  40187 44581 48276 51214 53454 55109 
2993.03  56331 57262 57964 58467 58801 59053 
3016.17  59307 59560 59762 59898 60017 60158 
3039.31  60304 60407 60463 60512 60579 60647 
3062.45  60717 60809 60906 60958 60967 60998 
3085.59  61079 61155 61174 61154 61150 61161 
3108.74  61147 61093 61043 61047 61100 61152 
3131.88  61174 61188 61216 61239 61231 61215 
3155.02  61233 61278 61310 61307 61282 61253 
3178.16  61231 61226 61224 61207 61174 61147 
3201.30  61131 61096 61025 60953 60925 60924 
3224.45  60896 60836 60791 60781 60771 60737 
3247.59  60700 60679 60669 60662 60646 60608 
3270.73  60561 60553 60598 60633 60594 60501 
3293.87  60427 60395 60365 60325 60319 60348 
3317.01  60348 60290 60214 60145 60058 59959 
3340.16  59892 59854 59805 59735 59662 59578 
3363.30  59475 59385 59303 59180 58981 58720 
3386.44  58411 58051 57654 57262 56955 56822 
3409.58  56843 56932 57056 57262 57568 57874 
3432.72  58072 58102 58021 57989 58125 58351 
3455.87  58513 58578 58627 58699 58745 58725 
3479.01  58674 58669 58738 58795 58742 58588 
3502.15  58468 58505 58682 58818 58736 58475 
3525.29  58310 58435 58684 58738 58502 58214 
3548.43  58215 58495 58597 58183 57578 57540 
3571.58  58131 58568 58372 57774 57324 57262 
3594.72  57423 57563 57544 57262 56832 56612 
3617.86  56833 57117 57126 57262 57955 58604 
3641.00  58356 57262 56572 57262 58359 58929 
3664.14  58523 57262 56625 57262 57877 57887 
3687.29  57262 57262 57895 58323 58046 57466 
3710.43  57262 57262 57405 57262 56821 56122 
3733.57  55529 55425 55541 55437 55458 56208 
3756.71  57262 57870 58086 58325 58634 58730 
3779.85  58668 58803 59065 58922 58136 57262 
3803.00  57262 57778 57927 57262 56525 56598 
3826.14  57143 57111 56387 56027 56544 56953 
3849.28  56650 56237 56431 56705 56540 56347 
3872.42  56623 56995 57027 56989 57262 57516 
3895.56  57262 56940 57262 57993 58447 58275 
3918.71  57892 57725 57707 57714 57782 57805 
3941.85  57635 57428 57433 57584 57685 57711 
3964.99  57716 57687 57626 57584 57567 57533 
3988.13  57470 57403 57341 57262 
##END= 
