##TITLE= Mattson Instruments
##JCAMP_DX= 4.24
##OWNER= 
##ORIGIN= 
##DATA TYPE= INFRARED SPECTRUM
##YUNITS= % Transmittance
##XUNITS= 1/CM
##FIRSTX= 401.12781972
##FIRSTY= 44.12834930
##LASTX= 3999.70720246
##XFACTOR= 1.00000000
##YFACTOR= 0.00085349
##MINY= 0.00000102
##MAXY= 55.93321990
##DELTAX= 3.85699826
##NPOINTS= 934
##XYDATA= (X++(Y..Y))
401.12  51702 52450 52896 53157 53288 53296 
424.26  53127 52784 52304 51702 52719 53658 
447.41  54513 55270 55933 56514 56991 57323 
470.55  57515 57629 57592 57225 56591 56007 
493.69  55663 55445 55142 54480 53312 51702 
516.83  49879 46768 42777 40300 41652 46347 
539.97  51702 55378 57849 59672 60980 61838 
563.12  62448 62921 63276 63597 63917 64199 
586.26  64429 64630 64805 64962 65133 65308 
609.40  65451 65531 65534 65462 65350 65258 
632.54  65214 65208 65204 65173 65126 65106 
655.68  65123 65112 65032 64942 64934 64976 
678.83  64970 64898 64809 64740 64673 64596 
701.97  64513 64418 64318 64250 64226 64212 
725.11  64171 64100 64003 63878 63730 63562 
748.25  63372 63167 62959 62727 62440 62068 
771.39  61562 60844 59989 59388 59496 60315 
794.54  61329 62045 62386 62524 62579 62575 
817.68  62534 62477 62407 62329 62247 62164 
840.82  62074 61965 61825 61651 61444 61193 
863.96  60873 60439 59860 59143 58321 57338 
887.10  56077 54519 52913 51702 51309 51702 
910.25  52583 53645 54660 55554 56333 57016 
933.39  57604 58097 58499 58814 59051 59222 
956.53  59334 59392 59406 59375 59292 59166 
979.67  59049 58998 59031 59112 59198 59267 
1002.81  59308 59299 59220 59079 58912 58742 
1025.96  58575 58399 58214 58021 57813 57572 
1049.10  57274 56899 56462 56025 55622 55161 
1072.24  54473 53386 51702 49577 47407 46347 
1095.38  47130 49296 51702 53343 54452 55240 
1118.52  55823 56241 56541 56743 56845 56850 
1141.67  56773 56606 56347 56024 55658 55242 
1164.81  54774 54232 53548 52701 51702 50539 
1187.95  49016 47246 45377 43342 40988 37887 
1211.09  33001 26064 19768 18480 23546 31565 
1234.23  38348 42722 45687 47950 49594 50775 
1257.38  51702 52412 52915 53279 53523 53634 
1280.52  53635 53539 53347 53070 52709 52260 
1303.66  51702 50983 50124 49189 48216 47185 
1326.80  46022 44600 42777 40459 37446 33363 
1349.94  28144 22541 18010 16114 17641 21963 
1373.09  27298 31825 34849 36828 38233 39020 
1396.23  39133 38770 38068 37022 35692 34285 
1419.37  33201 32759 32787 32904 33002 33365 
1442.51  34259 35535 36873 38167 39546 40994 
1465.65  42305 43432 44502 45552 46465 47168 
1488.80  47764 48398 49031 49476 49707 49920 
1511.94  50221 50455 50547 50652 50887 51085 
1535.08  51064 50901 50950 51245 51451 51401 
1558.22  51286 51422 51702 51904 52038 52238 
1581.36  52534 52839 53103 53322 53499 53624 
1604.51  53702 53720 53636 53455 53283 53186 
1627.65  53065 52806 52436 52077 51702 51147 
1650.79  50370 49685 49168 48409 47092 45432 
1673.93  44011 42998 42061 40808 39140 36845 
1697.07  32550 24668 15040 6528 615 0 
1720.22  5579 13342 20490 26461 30486 32518 
1743.36  33609 34491 35686 37656 40135 42402 
1766.50  44149 45552 46752 47685 48353 48817 
1789.64  49166 49561 50142 50886 51702 52516 
1812.78  53313 54038 54636 55105 55534 55965 
1835.93  56328 56563 56767 57062 57429 57758 
1859.07  57987 58124 58225 58349 58489 58582 
1882.21  58609 58619 58675 58782 58900 58991 
1905.35  59047 59077 59085 59077 59078 59104 
1928.49  59138 59151 59135 59103 59079 59074 
1951.64  59075 59057 59023 58998 58992 58996 
1974.78  58991 58955 58873 58751 58611 58493 
1997.92  58437 58467 58561 58667 58748 58802 
2021.06  58846 58886 58912 58917 58908 58899 
2044.20  58894 58884 58864 58841 58818 58791 
2067.35  58749 58695 58632 58555 58459 58338 
2090.49  58175 57959 57701 57436 57182 56944 
2113.63  56724 56553 56445 56385 56317 56192 
2136.77  56013 55850 55812 55967 56300 56705 
2159.91  57074 57349 57541 57668 57750 57807 
2183.06  57855 57890 57910 57919 57927 57928 
2206.20  57915 57889 57848 57781 57688 57591 
2229.34  57514 57462 57417 57364 57291 57197 
2252.48  57091 57000 56956 56976 57052 57163 
2275.62  57285 57391 57463 57498 57514 57512 
2298.77  57486 57433 57424 57414 57405 57396 
2321.91  57387 57377 57368 57359 57350 57340 
2345.05  57331 57322 57313 57303 57294 57285 
2368.19  57275 57266 57257 57248 57382 57426 
2391.33  57412 57375 57324 57255 57166 57062 
2414.48  56934 56781 56613 56447 56277 56103 
2437.62  55966 55930 56032 56242 56487 56707 
2460.76  56879 56996 57066 57101 57116 57111 
2483.90  57083 57037 56990 56956 56943 56949 
2507.04  56968 56989 57005 57022 57040 57055 
2530.19  57054 57036 57008 56974 56930 56869 
2553.33  56782 56661 56482 56237 55958 55751 
2576.47  55716 55868 56131 56404 56621 56756 
2599.61  56836 56881 56899 56889 56864 56833 
2622.75  56797 56754 56699 56636 56579 56541 
2645.90  56511 56463 56397 56335 56294 56269 
2669.04  56241 56199 56137 56065 55991 55920 
2692.18  55843 55762 55687 55624 55566 55503 
2715.32  55437 55380 55332 55283 55229 55179 
2738.46  55134 55099 55063 55011 54923 54791 
2761.61  54615 54399 54148 53896 53702 53603 
2784.75  53580 53588 53594 53592 53576 53536 
2807.89  53458 53346 53206 53035 52830 52598 
2831.03  52359 52127 51906 51702 51530 51401 
2854.17  51301 51212 51130 51050 50959 50841 
2877.32  50682 50477 50229 49948 49621 49246 
2900.46  48824 48342 47786 47190 46643 46228 
2923.60  46004 46003 46185 46415 46555 46555 
2946.74  46429 46195 45882 45550 45266 45100 
2969.88  45103 45231 45322 45219 44863 44265 
2993.03  43461 42583 41897 41681 42052 42909 
3016.17  44008 45087 45990 46686 47242 47705 
3039.31  48100 48432 48717 48957 49146 49291 
3062.45  49411 49521 49622 49705 49791 49915 
3085.59  50092 50278 50434 50564 50693 50823 
3108.74  50936 51018 51105 51249 51446 51617 
3131.88  51702 51740 51805 51894 51962 52015 
3155.02  52099 52213 52316 52383 52426 52459 
3178.16  52501 52553 52600 52630 52650 52666 
3201.30  52678 52692 52711 52727 52738 52743 
3224.45  52727 52691 52665 52668 52677 52670 
3247.59  52660 52662 52671 52677 52655 52589 
3270.73  52509 52478 52507 52527 52493 52443 
3293.87  52424 52408 52352 52299 52325 52402 
3317.01  52421 52356 52288 52251 52202 52131 
3340.16  52081 52061 52032 51981 51915 51823 
3363.30  51702 51593 51526 51462 51327 51086 
3386.44  50740 50307 49773 49121 48351 47570 
3409.58  46976 46762 46984 47496 48073 48560 
3432.72  48942 49204 49359 49432 49501 49593 
3455.87  49727 49915 50124 50297 50410 50471 
3479.01  50498 50511 50521 50504 50463 50434 
3502.15  50453 50502 50537 50549 50549 50539 
3525.29  50528 50550 50595 50597 50547 50528 
3548.43  50621 50783 50895 50885 50803 50804 
3571.58  50942 51100 51153 51103 51047 51059 
3594.72  51112 51141 51121 51066 51009 50996 
3617.86  51049 51124 51164 51222 51401 51627 
3641.00  51718 51597 51443 51490 51702 51908 
3664.14  51980 51874 51702 51624 51702 51772 
3687.29  51714 51729 51913 52085 52098 52010 
3710.43  51983 52037 52087 52080 52007 51861 
3733.57  51702 51649 51678 51650 51546 51552 
3756.71  51702 51818 51827 51786 51748 51702 
3779.85  51677 51702 51729 51702 51606 51481 
3803.00  51446 51533 51626 51607 51522 51549 
3826.14  51702 51795 51702 51598 51702 51851 
3849.28  51851 51702 51655 51708 51708 51631 
3872.42  51587 51594 51562 51493 51496 51573 
3895.56  51572 51445 51362 51469 51627 51678 
3918.71  51655 51658 51677 51661 51649 51687 
3941.85  51730 51760 51797 51862 51923 51956 
3964.99  51966 51970 51984 51986 51949 51882 
3988.13  51837 51817 51776 51702 
##END= 
