##TITLE= Mattson Instruments
##JCAMP_DX= 4.24
##OWNER= 
##ORIGIN= 
##DATA TYPE= INFRARED SPECTRUM
##YUNITS= % Transmittance
##XUNITS= 1/CM
##FIRSTX= 401.12781972
##FIRSTY= 43.98018646
##LASTX= 3999.70720246
##XFACTOR= 1.00000000
##YFACTOR= 0.00078010
##MINY= 0.00000102
##MAXY= 51.12353134
##DELTAX= 3.85699826
##NPOINTS= 934
##XYDATA= (X++(Y..Y))
401.12  56377 57026 57494 57413 57082 57172 
424.26  57874 58623 59002 58819 58191 57538 
447.41  57008 56377 56603 56973 57440 57667 
470.55  57683 57652 57480 57038 56377 55430 
493.69  54002 51831 48254 42744 36639 33220 
516.83  34903 40565 46729 51242 54241 56377 
539.97  57885 58899 59612 60168 60669 61152 
563.12  61536 61778 61971 62175 62376 62582 
586.26  62804 62980 63074 63151 63248 63340 
609.40  63434 63540 63613 63619 63615 63644 
632.54  63688 63739 63786 63761 63642 63557 
655.68  63580 63521 63204 62861 62925 63307 
678.83  63577 63612 63588 63626 63689 63744 
701.97  63785 63777 63690 63550 63419 63318 
725.11  63213 63049 62814 62541 62235 61860 
748.25  61380 60780 60073 59355 58838 58734 
771.39  59105 59806 60596 61303 61879 62323 
794.54  62634 62862 63068 63245 63350 63387 
817.68  63407 63427 63416 63337 63195 63032 
840.82  62880 62738 62572 62345 62035 61614 
863.96  61051 60338 59551 58819 58245 57851 
887.10  57604 57472 57437 57468 57524 57575 
910.25  57628 57708 57832 57998 58213 58501 
933.39  58876 59302 59714 60089 60452 60810 
956.53  61129 61400 61655 61900 62103 62238 
979.67  62311 62331 62310 62262 62197 62118 
1002.81  62010 61840 61585 61259 60911 60605 
1025.96  60410 60369 60438 60498 60451 60288 
1049.10  60053 59769 59427 59002 58480 57872 
1072.24  57182 56377 55404 54177 52568 50394 
1095.38  47465 43554 38522 32985 28802 28120 
1118.52  31456 37149 42905 47481 50817 53242 
1141.67  55029 56377 57432 58288 59007 59631 
1164.81  60161 60582 60905 61204 61564 61992 
1187.95  62392 62675 62845 62949 63020 63070 
1211.09  63092 63070 63026 63026 63110 63235 
1234.23  63323 63343 63328 63318 63313 63296 
1257.38  63264 63226 63174 63102 63011 62907 
1280.52  62777 62610 62407 62174 61897 61546 
1303.66  61103 60536 59795 58878 57785 56377 
1326.80  54351 51502 47432 41635 34511 28213 
1349.94  25378 26990 31583 36473 39905 41771 
1373.09  42508 42323 41416 40079 38506 36826 
1396.23  35280 34233 33842 33754 33385 32416 
1419.37  31021 29828 29459 30358 32739 36124 
1442.51  39552 42424 44598 46303 48065 49876 
1465.65  51212 52036 52867 53947 54832 55230 
1488.80  55401 55781 56256 56383 56166 56117 
1511.94  56377 56536 56483 56682 57231 57564 
1535.08  57353 57033 57524 58490 58974 58864 
1558.22  58884 59584 60305 60624 60811 61218 
1581.36  61729 62047 62119 62091 62073 62022 
1604.51  61861 61556 61049 60332 59636 59204 
1627.65  58953 58779 58800 58958 58851 58292 
1650.79  57696 57670 57823 57439 56377 54969 
1673.93  53517 51619 48988 46374 44521 42778 
1697.07  39793 34806 29072 23332 16556 8750 
1720.22  2756 95 0 2422 6944 11798 
1743.36  16359 20888 24971 28236 31029 33611 
1766.50  35997 38378 40882 43239 45221 46859 
1789.64  48258 49580 50977 52364 53553 54557 
1812.78  55513 56377 57001 57432 57965 58708 
1835.93  59391 59836 60216 60769 61406 61886 
1859.07  62125 62211 62347 62701 63193 63579 
1882.21  63753 63811 63902 64077 64276 64419 
1905.35  64478 64499 64517 64531 64578 64711 
1928.49  64875 64945 64884 64787 64766 64832 
1951.64  64905 64910 64851 64777 64715 64664 
1974.78  64611 64521 64366 64169 64010 63947 
1997.92  63964 64017 64080 64145 64209 64281 
2021.06  64379 64498 64601 64665 64713 64773 
2044.20  64850 64935 65015 65071 65108 65150 
2067.35  65207 65269 65318 65347 65358 65367 
2090.49  65380 65389 65380 65357 65334 65325 
2113.63  65331 65345 65366 65396 65424 65438 
2136.77  65440 65442 65451 65462 65466 65461 
2159.91  65452 65444 65429 65401 65373 65351 
2183.06  65322 65269 65205 65144 65077 64987 
2206.20  64870 64743 64616 64496 64388 64299 
2229.34  64227 64187 64209 64306 64442 64566 
2252.48  64659 64723 64771 64816 64863 64908 
2275.62  64948 64987 65013 65023 65034 65045 
2298.77  65055 65066 65077 65087 65098 65109 
2321.91  65119 65130 65141 65151 65162 65173 
2345.05  65183 65194 65205 65215 65226 65237 
2368.19  65247 65258 65269 65279 65290 65301 
2391.33  65434 65467 65476 65493 65519 65534 
2414.48  65529 65503 65460 65412 65363 65299 
2437.62  65206 65085 64928 64721 64498 64359 
2460.76  64385 64548 64744 64896 65003 65080 
2483.90  65124 65143 65161 65184 65201 65212 
2507.04  65226 65228 65202 65156 65108 65059 
2530.19  65003 64952 64927 64938 64972 65012 
2553.33  65046 65068 65075 65064 65036 64995 
2576.47  64943 64879 64798 64703 64604 64508 
2599.61  64414 64326 64242 64146 64033 63904 
2622.75  63760 63598 63416 63213 62972 62692 
2645.90  62383 62053 61688 61265 60776 60235 
2669.04  59641 58971 58201 57334 56377 55293 
2692.18  54074 52717 51223 49588 47788 45828 
2715.32  43742 41638 39721 38262 37455 37292 
2738.46  37565 38009 38470 38990 39751 40881 
2761.61  42310 43789 45077 46040 46653 46942 
2784.75  46956 46742 46330 45730 44937 43953 
2807.89  42806 41565 40331 39211 38273 37516 
2831.03  36858 36223 35631 35237 35261 35868 
2854.17  37074 38752 40715 42783 44800 46627 
2877.32  48206 49554 50707 51664 52419 52989 
2900.46  53404 53687 53862 53976 54096 54282 
2923.60  54533 54799 55030 55209 55330 55381 
2946.74  55368 55309 55215 55089 54958 54866 
2969.88  54819 54756 54598 54303 53861 53275 
2993.03  52591 51968 51648 51818 52466 53395 
3016.17  54353 55179 55840 56377 56838 57225 
3039.31  57520 57734 57917 58094 58240 58337 
3062.45  58411 58489 58557 58592 58606 58621 
3085.59  58642 58662 58680 58690 58676 58633 
3108.74  58576 58525 58492 58498 58575 58721 
3131.88  58893 59050 59182 59292 59374 59441 
3155.02  59523 59619 59691 59718 59746 59810 
3178.16  59879 59903 59899 59917 59957 59968 
3201.30  59941 59922 59935 59942 59923 59907 
3224.45  59918 59927 59902 59858 59830 59815 
3247.59  59785 59745 59724 59731 59733 59706 
3270.73  59674 59668 59675 59660 59619 59574 
3293.87  59534 59495 59448 59393 59346 59329 
3317.01  59327 59293 59217 59130 59059 58999 
3340.16  58937 58872 58808 58751 58701 58653 
3363.30  58597 58533 58462 58368 58254 58151 
3386.44  58067 57954 57772 57538 57263 56899 
3409.58  56377 55625 54634 53445 52290 51552 
3432.72  51468 51928 52618 53318 53966 54533 
3455.87  54994 55368 55687 55935 56106 56223 
3479.01  56310 56377 56473 56618 56744 56759 
3502.15  56690 56684 56811 56957 56981 56894 
3525.29  56844 56924 57072 57165 57135 57042 
3548.43  57040 57187 57284 57126 56829 56800 
3571.58  57137 57446 57424 57146 56891 56844 
3594.72  56945 57055 57060 56894 56593 56377 
3617.86  56462 56632 56655 56678 56991 57351 
3641.00  57299 56785 56377 56377 57050 57518 
3664.14  57471 56912 56377 56377 56913 57082 
3687.29  56864 56815 57125 57336 57151 56759 
3710.43  56541 56564 56628 56588 56377 55977 
3733.57  55610 55533 55608 55567 55560 55899 
3756.71  56377 56687 56793 56894 57029 57086 
3779.85  57104 57217 57355 57270 56854 56377 
3803.00  56295 56608 56764 56470 56054 56078 
3826.14  56379 56348 55911 55695 56012 56251 
3849.28  56040 55778 55918 56083 55914 55729 
3872.42  55913 56191 56188 56043 56095 56242 
3895.56  56153 55904 55971 56399 56679 56562 
3918.71  56284 56150 56159 56219 56322 56401 
3941.85  56356 56270 56302 56425 56502 56514 
3964.99  56518 56522 56509 56490 56467 56442 
3988.13  56425 56429 56422 56377 
##END= 
