##TITLE= Mattson Instruments
##JCAMP_DX= 4.24
##OWNER= 
##ORIGIN= 
##DATA TYPE= INFRARED SPECTRUM
##YUNITS= % Transmittance
##XUNITS= 1/CM
##FIRSTX= 401.12781972
##FIRSTY= 61.30566406
##LASTX= 3999.70720246
##XFACTOR= 1.00000000
##YFACTOR= 0.00124198
##MINY= 0.00000102
##MAXY= 81.39256286
##DELTAX= 3.85699826
##NPOINTS= 934
##XYDATA= (X++(Y..Y))
401.12  49360 50314 51515 52682 53407 53762 
424.26  53794 52722 50407 47514 43363 36278 
447.41  27895 23918 28604 39344 49091 54703 
470.55  57762 59870 61277 62171 62879 63450 
493.69  63826 64082 64259 64361 64452 64552 
516.83  64663 64824 65052 65276 65434 65529 
539.97  65534 65449 65348 65264 65134 64909 
563.12  64598 64192 63733 63292 62853 62443 
586.26  62194 62099 62007 61940 61788 60826 
609.40  58690 56560 55964 56447 56021 53576 
632.54  49099 42079 31997 20752 13119 13615 
655.68  21268 29858 35076 37343 38078 35767 
678.83  28542 18307 10599 9699 15426 24989 
701.97  34703 41585 44965 45890 45323 43356 
725.11  39491 33064 24227 15070 8536 5677 
748.25  5357 6770 10591 17269 25530 33230 
771.39  39071 43094 45964 48179 49858 50936 
794.54  51039 49194 44671 38465 32731 28074 
817.68  22808 16117 10812 11168 18259 28687 
840.82  37862 43616 46698 48814 50879 52819 
863.96  54300 55231 55757 56140 56590 57090 
887.10  57463 57599 57464 57058 56631 56483 
910.25  56200 54734 51975 49676 49860 52584 
933.39  56040 58649 60209 61131 61590 61672 
956.53  61572 61286 60621 59625 58526 57432 
979.67  56483 55806 54906 52677 48600 43738 
1002.81  40377 40200 42151 42982 41466 40870 
1025.96  44706 51384 56231 57606 57582 57608 
1049.10  57152 56088 54853 52195 46316 39206 
1072.24  36474 40874 48578 54007 55805 55863 
1095.38  55399 54779 54870 56032 57299 57830 
1118.52  57758 57307 56372 54800 52390 49224 
1141.67  45936 42582 37930 31083 22955 15663 
1164.81  11727 13347 20183 28328 33464 34177 
1187.95  31015 24551 16247 9256 6561 9184 
1211.09  16309 25733 34472 40506 43954 45999 
1234.23  47336 48138 48634 49119 49731 50371 
1257.38  50712 50541 50135 49630 48094 44342 
1280.52  38810 33741 31401 32287 34197 32992 
1303.66  26428 18221 15824 22647 34387 44128 
1326.80  48778 49271 47837 47073 48853 52512 
1349.94  55821 57543 58018 57964 57430 56128 
1373.09  54048 50668 44344 34694 25622 23466 
1396.23  29969 39758 46941 50506 52065 52386 
1419.37  51771 51207 51121 50806 49632 47389 
1442.51  43288 36242 27007 20506 23587 34210 
1465.65  43971 49738 52556 54137 55193 55570 
1488.80  55385 55567 56551 57599 58117 58322 
1511.94  58636 58914 58936 58773 58489 57938 
1535.08  57043 56197 56029 56114 55790 54868 
1558.22  53108 50690 47967 43692 35507 24331 
1581.36  15496 11596 10618 9471 8085 9043 
1604.51  13064 18247 23488 29169 34538 37556 
1627.65  37399 34202 28872 23980 20847 18286 
1650.79  15741 14797 15748 17362 19087 20292 
1673.93  20126 18280 14433 9356 5605 4011 
1697.07  3530 1824 387 0 0 0 
1720.22  1565 10163 23604 29988 35985 39620 
1743.36  41463 43094 45355 47963 50132 51467 
1766.50  52150 52662 53395 54413 55556 56638 
1789.64  57489 57981 58041 57652 56859 55734 
1812.78  54373 52948 51667 50813 50787 51633 
1835.93  52838 54017 55113 56154 57168 58181 
1859.07  59149 59961 60565 60949 61028 60669 
1882.21  59766 58310 56543 54964 54011 53749 
1905.35  53911 54157 54281 54262 54326 54859 
1928.49  55980 57349 58495 59197 59515 59540 
1951.64  59226 58481 57343 56060 54971 54274 
1974.78  53883 53568 53234 53053 53337 54266 
1997.92  55679 57107 58078 58474 58419 57766 
2021.06  56258 54505 53997 55532 58186 60412 
2044.20  61673 62425 63052 63542 63858 64072 
2067.35  64230 64343 64435 64509 64539 64519 
2090.49  64473 64417 64350 64273 64221 64222 
2113.63  64245 64215 64074 63749 63152 62357 
2136.77  61718 61616 62074 62763 63358 63755 
2159.91  63996 64160 64312 64480 64628 64701 
2183.06  64691 64649 64621 64615 64615 64591 
2206.20  64520 64399 64240 64037 63787 63509 
2229.34  63204 62884 62663 62725 63103 63580 
2252.48  63895 63962 63855 63686 63583 63637 
2275.62  63812 63983 64070 64086 64040 63895 
2298.77  63620 63214 62623 61737 60559 59302 
2321.91  58230 57550 57414 57880 58859 60007 
2345.05  60847 61177 61061 60570 59853 59252 
2368.19  59187 59850 60907 61817 62338 62470 
2391.33  62147 61274 60104 59308 59440 60373 
2414.48  61440 62136 62468 62689 62915 63122 
2437.62  63277 63364 63378 63323 63230 63130 
2460.76  63011 62828 62566 62319 62231 62343 
2483.90  62549 62709 62798 62859 62845 62590 
2507.04  62098 61726 61825 62286 62694 62882 
2530.19  62990 63135 63278 63353 63332 63199 
2553.33  62971 62720 62536 62446 62317 61997 
2576.47  61524 61029 60463 59737 59129 59092 
2599.61  59621 60167 60250 59871 59366 59107 
2622.75  59272 59735 60196 60445 60434 60175 
2645.90  59754 59349 59076 58856 58534 58009 
2669.04  57163 55872 54087 51590 47870 43013 
2692.18  38658 36973 38317 40713 41834 40729 
2715.32  37545 32748 27103 21744 17688 15426 
2738.46  15031 16435 19584 24288 29893 35350 
2761.61  39835 43163 45423 46483 46098 44261 
2784.75  41189 37108 32300 27256 22616 18889 
2807.89  16229 14488 13511 13315 14042 15923 
2831.03  19111 23043 26169 27155 26500 26208 
2854.17  27661 30490 33660 36750 39857 42974 
2877.32  45892 48407 50420 51926 52939 53456 
2900.46  53642 53897 54522 55391 56154 56658 
2923.60  56982 57198 57272 57175 56992 56853 
2946.74  56778 56646 56353 55917 55364 54698 
2969.88  54029 53560 53353 53238 53023 52632 
2993.03  52008 51000 49450 47482 45602 44237 
3016.17  43084 41333 38762 36234 34833 34785 
3039.31  35476 36141 36133 34960 32634 30015 
3062.45  28502 29144 31645 34270 35271 34815 
3085.59  34949 37095 40375 43105 45021 47033 
3108.74  49418 51509 52847 53653 54262 54757 
3131.88  55156 55502 55784 55978 56116 56164 
3155.02  55959 55499 55168 55396 56098 56747 
3178.16  57009 56983 56872 56772 56820 57159 
3201.30  57726 58308 58772 59110 59346 59516 
3224.45  59671 59823 59954 60050 60123 60193 
3247.59  60256 60287 60272 60235 60204 60155 
3270.73  60010 59738 59427 59221 59183 59239 
3293.87  59301 59369 59481 59591 59608 59533 
3317.01  59432 59283 58989 58521 57969 57428 
3340.16  56930 56455 55964 55459 55035 54825 
3363.30  54801 54691 54118 52854 51029 49201 
3386.44  48134 48342 49758 51827 53914 55649 
3409.58  56947 57871 58529 59019 59412 59719 
3432.72  59915 59969 59923 59884 59919 60004 
3455.87  60088 60173 60264 60323 60322 60287 
3479.01  60267 60256 60238 60221 60200 60155 
3502.15  60089 60051 60069 60118 60151 60166 
3525.29  60208 60304 60422 60511 60540 60539 
3548.43  60566 60646 60716 60724 60711 60788 
3571.58  60972 61139 61196 61165 61129 61140 
3594.72  61165 61144 61038 60856 60626 60354 
3617.86  60065 59810 59680 59730 59841 59798 
3641.00  59535 59165 58974 59182 59622 60044 
3664.14  60324 60447 60563 60855 61221 61475 
3687.29  61568 61533 61435 61311 61161 60996 
3710.43  60874 60883 61074 61370 61612 61697 
3733.57  61703 61784 61922 62031 62141 62335 
3756.71  62548 62685 62751 62813 62894 62942 
3779.85  62932 62914 62908 62863 62728 62563 
3803.00  62508 62568 62597 62511 62390 62380 
3826.14  62443 62422 62287 62215 62312 62394 
3849.28  62315 62172 62152 62176 62098 61965 
3872.42  61899 61847 61688 61462 61333 61331 
3895.56  61364 61434 61620 61861 62014 62055 
3918.71  62070 62123 62193 62256 62311 62345 
3941.85  62341 62322 62321 62328 62308 62264 
3964.99  62226 62208 62212 62231 62233 62192 
3988.13  62121 62044 61940 61761 
##END= 
