##TITLE= Mattson Instruments
##JCAMP_DX= 4.24
##OWNER= 
##ORIGIN= 
##DATA TYPE= INFRARED SPECTRUM
##YUNITS= % Transmittance
##XUNITS= 1/CM
##FIRSTX= 401.12781972
##FIRSTY= 53.20382690
##LASTX= 3999.70720246
##XFACTOR= 1.00000000
##YFACTOR= 0.00095240
##MINY= 0.00000102
##MAXY= 62.41481399
##DELTAX= 3.85699826
##NPOINTS= 934
##XYDATA= (X++(Y..Y))
401.12  55862 57153 57987 58288 58320 58664 
424.26  59368 59916 60038 59882 59331 57629 
447.41  54811 52637 53093 55862 59069 60763 
470.55  61558 62261 62863 63199 63420 63680 
493.69  63935 64104 64267 64493 64726 64864 
516.83  64909 64987 65149 65332 65461 65532 
539.97  65534 65452 65363 65308 65235 65077 
563.12  64860 64655 64523 64485 64473 64389 
586.26  64162 63764 63202 62486 61560 60237 
609.40  58352 55862 52614 48432 42536 34334 
632.54  24721 16786 14078 17376 24182 31253 
655.68  36497 39376 40456 40925 42198 44859 
678.83  48329 51654 54204 55862 56888 56888 
701.97  55862 52437 44764 34341 27874 30783 
725.11  40597 50190 55862 58706 60602 61906 
748.25  62731 63378 63871 64137 64308 64463 
771.39  64561 64600 64620 64588 64440 64176 
794.54  63755 62825 61040 59009 58196 59217 
817.68  61046 62393 62994 63214 63329 63367 
840.82  63215 62890 62491 61796 60589 58947 
863.96  55862 49694 41458 37105 40658 48935 
887.10  55862 57733 55862 52892 49739 46686 
910.25  42417 38408 39505 47032 55862 60593 
933.39  62271 63220 63891 64044 64019 63930 
956.53  63615 63264 63093 62965 62712 62302 
979.67  61705 60913 59992 59058 58155 57109 
1002.81  55862 55107 55227 55862 56345 55862 
1025.96  53323 48223 42978 41896 46116 52053 
1049.10  55862 57049 57345 57625 57949 58397 
1072.24  58951 59402 59732 60021 60171 60164 
1095.38  60147 60022 59578 59003 58486 57831 
1118.52  57041 55862 52636 45542 37783 35835 
1141.67  41677 50182 55862 58198 59623 60931 
1164.81  61828 62471 63087 63547 63836 64078 
1187.95  64224 64219 64156 64070 63919 63731 
1211.09  63517 63204 62825 62539 62321 61865 
1234.23  61018 60097 59614 59728 59858 58801 
1257.38  55862 52009 50470 52415 55862 58769 
1280.52  60167 60922 61441 61715 61729 61296 
1303.66  60429 59484 58167 55862 53334 53179 
1326.80  55127 56421 55805 54874 55093 55862 
1349.94  56656 57345 58120 58737 59079 59235 
1373.09  59184 58880 58266 57195 55862 54972 
1396.23  55015 55373 55223 54347 52736 50326 
1419.37  47308 43657 38532 31715 25246 22099 
1442.51  22406 24190 26740 30806 36570 42335 
1465.65  46830 50336 53355 55862 57557 58449 
1488.80  58896 59500 60224 60482 60221 60132 
1511.94  60458 60573 60229 60005 60344 60763 
1535.08  60783 60704 61383 62441 62851 62425 
1558.22  62033 62569 63253 63404 63285 63374 
1581.36  63530 63323 62589 61389 59933 58699 
1604.51  58295 58822 59631 60085 60216 60321 
1627.65  60215 59663 58942 58054 55862 51984 
1650.79  48683 50616 55862 59247 60398 59865 
1673.93  58468 56809 55862 57034 58941 59950 
1697.07  59916 59919 60471 60810 60688 60795 
1720.22  61627 62408 62507 62173 62099 62341 
1743.36  62412 62342 62554 63109 63636 63862 
1766.50  63755 63516 63471 63630 63659 63403 
1789.64  63092 63050 63309 63659 63926 64102 
1812.78  64275 64385 64205 63722 63376 63497 
1835.93  63768 63822 63779 63960 64302 64459 
1859.07  64265 63826 63282 62593 61752 61124 
1882.21  61198 62022 63050 63750 64041 63999 
1905.35  63695 63357 63250 63387 63638 63947 
1928.49  64260 64423 64352 64167 64088 64214 
1951.64  64466 64699 64836 64901 64956 65021 
1974.78  65056 64989 64818 64662 64652 64771 
1997.92  64897 64980 65050 65102 65111 65103 
2021.06  65128 65172 65171 65082 64937 64830 
2044.20  64846 64956 65047 65048 64965 64818 
2067.35  64641 64512 64491 64546 64590 64507 
2090.49  64142 63475 62851 62756 63261 63948 
2113.63  64429 64677 64814 64887 64893 64833 
2136.77  64706 64566 64535 64665 64861 64993 
2159.91  64996 64871 64662 64453 64339 64372 
2183.06  64466 64408 64098 63766 63754 64082 
2206.20  64445 64624 64623 64621 64619 64617 
2229.34  64616 64614 64612 64610 64609 64607 
2252.48  64605 64603 64602 64600 64598 64596 
2275.62  64594 64593 64591 64589 64587 64586 
2298.77  64584 64582 64580 64579 64577 64575 
2321.91  64573 64572 64570 64568 64566 64565 
2345.05  64563 64561 64559 64558 64556 64554 
2368.19  64552 64551 64549 64547 64545 64544 
2391.33  64542 64540 64538 64537 64535 64686 
2414.48  64866 64985 65001 64986 65012 65043 
2437.62  65026 64991 64982 64962 64883 64742 
2460.76  64500 64095 63610 63300 63328 63604 
2483.90  63926 64185 64369 64479 64512 64491 
2507.04  64463 64476 64528 64572 64585 64615 
2530.19  64695 64780 64817 64818 64802 64743 
2553.33  64612 64393 64032 63489 62888 62526 
2576.47  62610 63055 63567 63922 64086 64122 
2599.61  64046 63848 63625 63551 63652 63758 
2622.75  63679 63285 62476 61372 60365 59549 
2645.90  58261 55862 53205 51886 53016 55862 
2669.04  58370 59547 59657 59761 60387 61161 
2692.18  61622 61811 61831 61548 61103 61067 
2715.32  61630 62213 62288 62032 61844 61740 
2738.46  61564 61343 61127 60816 60335 59690 
2761.61  58760 57395 55862 54804 54395 54122 
2784.75  53380 52166 50921 49937 49131 48208 
2807.89  46778 44433 40889 36088 30152 23472 
2831.03  17071 12612 11354 12732 14444 14511 
2854.17  13096 11958 12245 13396 14052 13562 
2877.32  12440 11562 11218 11082 10803 10267 
2900.46  9341 7849 5912 3966 2340 1074 
2923.60  224 0 502 1729 3919 7360 
2946.74  11656 15781 19201 22468 26327 30591 
2969.88  34204 36158 36388 35994 36394 37969 
2993.03  39717 40312 39148 36244 31687 25807 
3016.17  19843 15941 16000 20338 27374 34722 
3039.31  40729 45029 47831 49088 48752 47718 
3062.45  47705 49618 52490 54724 55862 56530 
3085.59  57266 58034 58664 59143 59542 59904 
3108.74  60220 60464 60675 60908 61134 61283 
3131.88  61348 61373 61388 61397 61389 61365 
3155.02  61349 61350 61336 61269 61148 60989 
3178.16  60825 60689 60587 60480 60353 60246 
3201.30  60174 60112 60049 60023 60064 60140 
3224.45  60181 60171 60154 60169 60190 60178 
3247.59  60133 60068 59971 59810 59565 59238 
3270.73  58884 58591 58391 58212 57995 57815 
3293.87  57820 58023 58266 58418 58510 58612 
3317.01  58710 58764 58783 58777 58739 58687 
3340.16  58654 58622 58539 58407 58275 58147 
3363.30  58002 57859 57768 57729 57705 57676 
3386.44  57656 57664 57702 57744 57767 57779 
3409.58  57793 57805 57813 57832 57862 57878 
3432.72  57875 57880 57918 57995 58103 58211 
3455.87  58286 58325 58360 58412 58478 58539 
3479.01  58589 58644 58702 58724 58658 58530 
3502.15  58414 58377 58434 58532 58568 58505 
3525.29  58461 58542 58673 58681 58515 58311 
3548.43  58282 58469 58607 58422 58033 57945 
3571.58  58319 58691 58681 58361 58074 58026 
3594.72  58144 58283 58328 58168 57817 57571 
3617.86  57680 57904 57885 57816 58182 58707 
3641.00  58680 57887 57057 57145 57839 58316 
3664.14  58185 57425 56601 56659 57337 57630 
3687.29  57314 57061 57348 57686 57589 57195 
3710.43  56964 57026 57117 57036 56668 55992 
3733.57  55328 55118 55228 55189 55110 55535 
3756.71  56319 56899 57099 57163 57270 57334 
3779.85  57314 57369 57530 57543 57162 56555 
3803.00  56335 56665 56937 56685 56160 56094 
3826.14  56481 56597 56163 55806 56117 56530 
3849.28  56422 56004 55954 56157 56110 55890 
3872.42  55906 56083 56052 55844 55780 55825 
3895.56  55626 55166 54970 55236 55459 55273 
3918.71  54883 54674 54699 54861 55139 55402 
3941.85  55476 55436 55508 55674 55759 55725 
3964.99  55674 55655 55665 55691 55696 55652 
3988.13  55603 55622 55726 55862 
##END= 
