##TITLE= Mattson Instruments
##JCAMP_DX= 4.24
##OWNER= 
##ORIGIN= 
##DATA TYPE= INFRARED SPECTRUM
##YUNITS= % Transmittance
##XUNITS= 1/CM
##FIRSTX= 401.12781972
##FIRSTY= 59.81833267
##LASTX= 3999.70720246
##XFACTOR= 1.00000000
##YFACTOR= 0.00126543
##MINY= 0.00000102
##MAXY= 82.92890167
##DELTAX= 3.85699826
##NPOINTS= 934
##XYDATA= (X++(Y..Y))
401.12  47271 48589 49766 50710 51426 52182 
424.26  53096 53746 54008 54103 53798 52743 
447.41  50969 47271 39049 27087 19395 22729 
470.55  34822 47271 54210 57373 59396 60939 
493.69  61923 62546 62936 63221 63314 62676 
516.83  61326 60542 61335 62916 63954 64267 
539.97  64478 64833 65124 65279 65381 65451 
563.12  65463 65462 65478 65485 65504 65534 
586.26  65528 65464 65375 65252 65054 64806 
609.40  64416 63649 62554 61745 61739 62264 
632.54  62678 62701 62440 61994 61407 60666 
655.68  59656 58249 56037 52309 47271 42228 
678.83  37691 31758 22963 13730 9199 12121 
701.97  19891 26897 28928 25040 17233 9092 
725.11  3595 1725 3195 7706 14623 22454 
748.25  29754 35960 41042 44834 47271 49017 
771.39  50295 50777 50136 49362 50013 52145 
794.54  54263 55345 55738 56027 56294 56499 
817.68  56701 56811 56651 56170 55372 54398 
840.82  53701 53743 54483 55445 56188 56517 
863.96  56478 56231 55917 55699 55594 54943 
887.10  52736 49384 47271 48191 51087 53503 
910.25  54571 55026 55320 55224 54794 54462 
933.39  54366 54255 53912 53410 52961 52578 
956.53  52077 51462 50976 50703 50479 50182 
979.67  49855 49665 49728 49774 49399 48795 
1002.81  48419 48059 47271 45976 43217 37469 
1025.96  29948 25107 25348 28041 30040 31779 
1049.10  34816 38496 41088 42136 41967 39991 
1072.24  35163 28647 24762 27207 34594 41771 
1095.38  45244 45476 44790 45155 47271 50204 
1118.52  52306 53140 53422 53568 53482 53208 
1141.67  52768 51934 50736 49633 49111 49413 
1164.81  50074 49637 47271 44542 44511 47271 
1187.95  50282 51737 52377 52789 52393 51474 
1211.09  51601 53298 55265 56335 56670 56812 
1234.23  56806 56486 55904 55366 55223 55555 
1257.38  56065 56412 56526 56520 56486 56460 
1280.52  56473 56506 56454 56217 55850 55448 
1303.66  54926 54185 53487 53247 53423 53521 
1326.80  53256 52825 52532 52387 52149 51674 
1349.94  50991 50036 48733 47271 45597 42656 
1373.09  37892 33277 31969 34461 38154 40605 
1396.23  41577 41846 41645 40959 39930 38540 
1419.37  36780 35052 33598 31984 29580 26195 
1442.51  22331 18659 15609 13357 12061 11919 
1465.65  12930 14923 17545 19933 20792 18700 
1488.80  13407 8594 8900 14404 22502 29846 
1511.94  34021 35274 35143 35684 37757 40001 
1535.08  41379 42386 43885 45310 45932 45842 
1558.22  45366 44606 43463 42243 41777 42240 
1581.36  42511 42055 41019 38184 31947 24694 
1604.51  22578 28130 36644 42139 43831 45004 
1627.65  47271 49934 52403 54229 55090 55177 
1650.79  55110 55424 55966 56377 56501 56349 
1673.93  56127 56030 56182 56575 56826 56609 
1697.07  56187 56287 56897 57239 57068 56641 
1720.22  56159 55350 53913 52203 51404 52076 
1743.36  53500 54968 56093 56667 56738 56467 
1766.50  55938 55267 54725 54442 54156 53458 
1789.64  52017 49765 47271 45535 45624 47271 
1812.78  49525 51136 52020 52640 53340 54023 
1835.93  54343 54004 52720 50322 47271 44675 
1859.07  43902 44895 46306 47271 48505 50381 
1882.21  52523 54284 55471 56266 56831 57257 
1905.35  57592 57766 57620 57069 56180 54993 
1928.49  53247 50570 47271 44508 43917 45341 
1951.64  47271 48767 49958 51584 53689 55606 
1974.78  56802 57281 57312 57189 57233 57634 
1997.92  58220 58652 58828 58925 59106 59358 
2021.06  59592 59758 59866 59950 60027 60085 
2044.20  60111 60112 60096 60054 59978 59898 
2067.35  59864 59895 59964 60024 60055 60063 
2090.49  60062 60060 60052 60024 59974 59921 
2113.63  59891 59895 59923 59948 59948 59923 
2136.77  59882 59825 59754 59646 59395 58913 
2159.91  58374 58162 58434 58888 59133 59109 
2183.06  59022 59046 59202 59381 59417 59269 
2206.20  59115 59148 59338 59509 59565 59527 
2229.34  59436 59319 59209 59122 59015 58795 
2252.48  58421 58013 57800 57882 58094 58172 
2275.62  58031 57813 57683 57682 57761 57839 
2298.77  57758 57715 57672 57629 57587 57544 
2321.91  57501 57458 57416 57373 57330 57288 
2345.05  57245 57202 57159 57117 57074 57031 
2368.19  56988 56946 56903 56860 56817 56775 
2391.33  56836 56969 57022 56858 56545 56306 
2414.48  56326 56603 56965 57246 57434 57610 
2437.62  57801 57960 58040 58043 58002 57953 
2460.76  57914 57893 57897 57911 57908 57879 
2483.90  57829 57766 57714 57712 57745 57755 
2507.04  57741 57768 57851 57933 57971 57959 
2530.19  57883 57726 57555 57474 57511 57603 
2553.33  57704 57801 57855 57816 57674 57367 
2576.47  56718 55758 55006 55027 55694 56295 
2599.61  56418 56310 56350 56568 56784 56879 
2622.75  56834 56714 56650 56718 56852 56947 
2645.90  56984 57000 57021 57049 57074 57077 
2669.04  57060 57053 57073 57082 57032 56938 
2692.18  56848 56757 56629 56465 56251 55920 
2715.32  55450 54750 53471 51420 49373 48726 
2738.46  49961 52028 53597 54331 54626 54762 
2761.61  54768 54686 54576 54436 54274 54110 
2784.75  53912 53622 53230 52752 52181 51544 
2807.89  50935 50404 49866 49188 48327 47271 
2831.03  45921 44127 41797 38838 35156 30863 
2854.17  26581 23149 20972 19800 19248 19242 
2877.32  19909 21202 22786 24181 24909 24554 
2900.46  22844 19753 15697 11569 8502 7243 
2923.60  7724 9200 10798 11941 12440 12501 
2946.74  12501 12708 13253 14148 15195 15966 
2969.88  16165 15951 15774 15949 16424 16816 
2993.03  16642 15718 14357 12914 11206 8718 
3016.17  5501 2408 418 0 1128 3401 
3039.31  6021 8077 9021 8937 8327 7842 
3062.45  8225 10021 12916 15349 15627 14146 
3085.59  13899 17348 23299 28293 30828 32441 
3108.74  34843 37891 40769 43279 45504 47271 
3131.88  48454 49230 49769 50149 50453 50736 
3155.02  50942 51009 50991 51060 51335 51742 
3178.16  52088 52275 52362 52428 52483 52523 
3201.30  52552 52579 52616 52665 52709 52745 
3224.45  52794 52853 52880 52852 52802 52768 
3247.59  52762 52774 52794 52806 52792 52753 
3270.73  52711 52692 52689 52668 52611 52534 
3293.87  52459 52387 52313 52242 52188 52143 
3317.01  52088 52035 52014 52021 52030 52032 
3340.16  52034 52023 51992 51948 51888 51788 
3363.30  51657 51545 51488 51462 51434 51402 
3386.44  51369 51336 51305 51292 51305 51333 
3409.58  51344 51309 51234 51153 51075 50981 
3432.72  50867 50765 50704 50702 50761 50860 
3455.87  50952 51014 51056 51099 51148 51200 
3479.01  51261 51343 51442 51525 51556 51543 
3502.15  51530 51559 51620 51659 51634 51581 
3525.29  51592 51699 51815 51822 51693 51523 
3548.43  51461 51544 51616 51519 51332 51313 
3571.58  51479 51544 51335 50989 50778 50798 
3594.72  50911 50966 50907 50734 50494 50307 
3617.86  50234 50189 50124 50194 50454 50565 
3641.00  50205 49482 49008 49269 49927 50410 
3664.14  50451 50074 49673 49745 50107 50271 
3687.29  50212 50262 50488 50541 50250 49843 
3710.43  49658 49703 49751 49702 49584 49450 
3733.57  49386 49439 49494 49448 49453 49693 
3756.71  50013 50187 50236 50295 50328 50189 
3779.85  49920 49745 49736 49705 49484 49182 
3803.00  49090 49210 49212 48927 48603 48587 
3826.14  48711 48549 48081 47770 47846 47927 
3849.28  47785 47684 47825 47898 47702 47499 
3872.42  47567 47727 47710 47580 47547 47577 
3895.56  47486 47335 47400 47688 47872 47801 
3918.71  47645 47623 47725 47847 47944 47975 
3941.85  47902 47791 47767 47855 47965 48037 
3964.99  48065 48046 47974 47890 47859 47880 
3988.13  47869 47750 47531 47271 
##END= 
