##TITLE= Mattson Instruments
##JCAMP_DX= 4.24
##OWNER= 
##ORIGIN= 
##DATA TYPE= INFRARED SPECTRUM
##YUNITS= % Transmittance
##XUNITS= 1/CM
##FIRSTX= 401.12781972
##FIRSTY= 55.98883438
##LASTX= 3999.70720246
##XFACTOR= 1.00000000
##YFACTOR= 0.00107472
##MINY= 20.07973861
##MAXY= 90.51102447
##DELTAX= 3.85699826
##NPOINTS= 934
##XYDATA= (X++(Y..Y))
401.12  52095 53515 54688 55562 56506 58013 
424.26  59833 61455 62721 63647 64280 64667 
447.41  64732 64167 62723 60696 58912 57941 
470.55  57853 58447 59375 60740 63109 66470 
493.69  69820 72283 73881 74986 75776 76254 
516.83  76508 76725 76970 77157 77203 77099 
539.97  76845 76414 75813 75041 73944 72220 
563.12  69535 65498 59754 53024 47972 47670 
586.26  52535 59761 66014 69991 72310 73785 
609.40  74640 74892 74827 74882 75218 75593 
632.54  75694 75494 75154 74698 74036 73229 
655.68  72384 71297 69646 67609 65791 64186 
678.83  61916 57655 49907 38685 27342 21276 
701.97  23189 30202 36985 40144 39089 34825 
725.11  29074 23763 20221 18710 18683 19654 
748.25  21839 25593 30305 34462 36891 37562 
771.39  37235 36713 36592 37349 39328 42322 
794.54  45308 46986 46859 45539 43913 42315 
817.68  40586 38613 36527 34545 32799 31348 
840.82  30219 29402 28816 28377 28058 27883 
863.96  27880 28060 28420 28933 29570 30297 
887.10  31081 31864 32566 33117 33580 34202 
910.25  35289 37013 39365 42177 45201 48206 
933.39  51051 53599 55717 57320 58358 58768 
956.53  58531 57725 56566 55433 54682 54396 
979.67  54555 55282 56553 57922 59002 59886 
1002.81  60816 61718 61955 60298 56197 51774 
1025.96  50786 54221 58621 60276 59175 57361 
1049.10  55655 53898 52833 53661 56187 58856 
1072.24  60726 62479 65095 68260 70869 72512 
1095.38  73612 74470 75037 75392 75737 76085 
1118.52  76305 76325 76103 75605 74860 73939 
1141.67  72854 71561 70145 69004 68640 69111 
1164.81  69869 70256 70078 69693 69635 70047 
1187.95  70412 70042 68942 67961 68022 69369 
1211.09  71549 73841 75678 76853 77466 77711 
1234.23  77698 77448 76962 76255 75319 74174 
1257.38  72972 71972 71411 71382 71755 72178 
1280.52  72302 72082 71758 71613 71745 72042 
1303.66  72295 72339 72094 71528 70712 69844 
1326.80  69056 68246 67203 65866 64406 63142 
1349.94  62417 62469 63201 64036 64214 63154 
1373.09  60607 57044 53881 52603 53900 57470 
1396.23  62088 66341 69410 71201 71924 71729 
1419.37  71025 70383 69405 67298 64232 60371 
1442.51  54298 45540 37463 36313 44373 53754 
1465.65  58959 61821 64244 65921 65492 60740 
1488.80  50772 42510 43664 51373 59677 64797 
1511.94  66851 67551 67461 67342 67623 67364 
1535.08  65917 63873 62877 62763 62226 60885 
1558.22  59233 58144 57187 55619 53467 51368 
1581.36  49689 48419 47657 47049 45801 44110 
1604.51  43470 44795 47310 49834 52028 54033 
1627.65  55770 57240 58720 60193 61250 61974 
1650.79  63294 65576 67484 68488 69113 70022 
1673.93  71134 71857 72301 73144 74174 74513 
1697.07  74149 74425 75760 76665 76701 76796 
1720.22  77716 78497 78362 77620 77197 77202 
1743.36  76978 76557 76479 76788 77083 77172 
1766.50  77061 76932 77207 77965 78661 78796 
1789.64  78296 77455 76568 75695 74887 74419 
1812.78  74586 75189 75673 75907 76361 77208 
1835.93  77915 78154 78201 78451 78805 78885 
1859.07  78496 77700 76811 76236 76059 76004 
1882.21  75886 75815 76007 76498 77123 77713 
1905.35  78212 78629 78923 79046 79060 79048 
1928.49  78893 78343 77270 75834 74483 73699 
1951.64  73652 74130 74821 75594 76496 77528 
1974.78  78541 79338 79838 80173 80581 81135 
1997.92  81670 82032 82233 82360 82468 82601 
2021.06  82776 82955 83088 83170 83228 83274 
2044.20  83325 83393 83471 83540 83596 83666 
2067.35  83763 83865 83936 83971 83984 83988 
2090.49  83989 83998 84017 84034 84047 84060 
2113.63  84074 84091 84112 84142 84176 84204 
2136.77  84217 84216 84207 84188 84162 84140 
2159.91  84131 84124 84105 84071 84026 83982 
2183.06  83956 83956 83966 83961 83927 83877 
2206.20  83836 83814 83817 83820 83823 83825 
2229.34  83828 83831 83834 83837 83840 83843 
2252.48  83846 83849 83852 83855 83858 83861 
2275.62  83863 83866 83869 83872 83875 83878 
2298.77  83881 83884 83887 83890 83893 83896 
2321.91  83898 83901 83904 83907 83910 83913 
2345.05  83916 83919 83922 83925 83928 83931 
2368.19  83934 83936 83939 83942 83945 83948 
2391.33  83951 83954 83957 83960 83963 83966 
2414.48  83969 83971 83966 83983 84010 84024 
2437.62  84015 83989 83957 83930 83911 83894 
2460.76  83877 83860 83834 83792 83732 83676 
2483.90  83636 83597 83538 83472 83433 83421 
2507.04  83415 83413 83423 83442 83441 83419 
2530.19  83392 83375 83369 83360 83344 83340 
2553.33  83367 83407 83420 83396 83322 83173 
2576.47  82962 82791 82754 82796 82752 82530 
2599.61  82226 82007 81938 81924 81816 81559 
2622.75  81215 80908 80723 80659 80652 80650 
2645.90  80653 80684 80742 80804 80848 80867 
2669.04  80872 80883 80904 80910 80877 80803 
2692.18  80689 80526 80315 80071 79808 79531 
2715.32  79220 78841 78359 77748 76994 76103 
2738.46  75141 74232 73516 73098 73014 73193 
2761.61  73491 73766 73934 73955 73808 73484 
2784.75  72983 72294 71400 70266 68858 67115 
2807.89  64995 62503 59769 57027 54576 52609 
2831.03  51090 49732 48240 46495 44654 42994 
2854.17  41839 41477 42048 43428 45208 46834 
2877.32  47913 48368 48352 48030 47499 46827 
2900.46  46140 45564 45140 44827 44649 44753 
2923.60  45308 46367 47863 49678 51788 54189 
2946.74  56822 59506 62012 64109 65647 66629 
2969.88  67172 67354 67195 66729 65935 64617 
2993.03  62624 60260 58270 56920 55381 52241 
3016.17  47098 41326 37323 36808 39739 44325 
3039.31  48419 50849 51389 50083 47409 44928 
3062.45  44721 47478 51407 53734 53465 52471 
3085.59  53543 57308 61683 64369 65167 65525 
3108.74  66525 68032 69389 70206 70519 70565 
3131.88  70491 70290 69934 69472 68965 68401 
3155.02  67726 66937 66144 65493 65014 64608 
3178.16  64204 63828 63525 63297 63129 63005 
3201.30  62907 62827 62752 62642 62473 62251 
3224.45  61985 61652 61224 60693 60083 59406 
3247.59  58671 57873 57027 56149 55261 54392 
3270.73  53596 52913 52366 51959 51711 51642 
3293.87  51751 51996 52345 52822 53462 54243 
3317.01  55087 55937 56740 57375 57665 57490 
3340.16  56836 55741 54273 52550 50801 49177 
3363.30  47799 46825 46453 46799 47878 49613 
3386.44  51869 54524 57406 60218 62703 64783 
3409.58  66470 67776 68770 69598 70349 71002 
3432.72  71511 71893 72225 72599 73048 73488 
3455.87  73819 74059 74308 74620 74945 75214 
3479.01  75421 75647 75942 76257 76482 76590 
3502.15  76692 76938 77332 77670 77758 77663 
3525.29  77667 77955 78358 78580 78518 78372 
3548.43  78489 78882 79112 78834 78328 78342 
3571.58  78960 79432 79319 78837 78487 78468 
3594.72  78576 78641 78613 78347 77773 77258 
3617.86  77214 77408 77430 77467 77877 78191 
3641.00  77775 76665 75961 76723 78142 79108 
3664.14  79215 78506 77794 78239 79217 79577 
3687.29  79345 79358 79902 80272 80060 79572 
3710.43  79355 79448 79490 79328 78950 78382 
3733.57  77927 77953 78156 78022 77880 78486 
3756.71  79469 80070 80230 80377 80663 80818 
3779.85  80785 80863 81083 81002 80325 79463 
3803.00  79323 79859 80109 79648 78997 79090 
3826.14  79657 79706 79058 78651 79133 79621 
3849.28  79476 79128 79262 79504 79390 79239 
3872.42  79471 79770 79762 79651 79779 79939 
3895.56  79734 79324 79435 80140 80691 80733 
3918.71  80507 80381 80426 80602 80884 81098 
3941.85  81102 81058 81174 81368 81480 81520 
3964.99  81541 81534 81528 81589 81681 81716 
3988.13  81692 81651 81576 81420 
##END= 
