##TITLE= Mattson Instruments
##JCAMP_DX= 4.24
##OWNER= 
##ORIGIN= 
##DATA TYPE= INFRARED SPECTRUM
##YUNITS= % Transmittance
##XUNITS= 1/CM
##FIRSTX= 401.12365566
##FIRSTY= 55.23806381
##LASTX= 3999.66568195
##XFACTOR= 1.00000000
##YFACTOR= 0.00099664
##MINY= 15.05149745
##MAXY= 80.36569213
##DELTAX= 3.85695822
##NPOINTS= 934
##XYDATA= (X++(Y..Y))
401.12  55423 56042 56419 56164 55039 54108 
424.26  54784 56698 58546 59498 59383 58566 
447.40  57659 57109 56984 57125 57395 57769 
470.54  58312 58993 59222 58218 56303 55196 
493.69  56076 58090 59603 60029 59861 59512 
516.83  58961 58180 57370 56849 56814 57115 
539.97  57359 57320 57071 56748 56388 55991 
563.11  55581 55166 54749 54320 53866 53384 
586.25  52880 52340 51790 51252 50734 50233 
609.39  49757 49312 48908 48541 48236 47994 
632.54  47832 47776 47822 47941 48129 48409 
655.68  48808 49267 49745 50308 51022 51781 
678.82  52487 53192 53942 54642 55296 56000 
701.96  56631 57036 57353 57235 55328 51380 
725.10  48192 49033 53413 57873 60360 61601 
748.24  62640 63542 64223 64838 65382 65730 
771.39  65692 64874 63176 61601 61549 63309 
794.53  65832 67950 69326 70272 71042 71676 
817.67  72160 72535 72813 72968 72994 72886 
840.81  72583 72099 71466 70583 69268 67273 
863.95  63825 57560 48030 37554 30570 30438 
887.10  36939 46680 55525 61065 63356 63544 
910.24  62221 59359 55093 49672 43100 35725 
933.38  28960 24827 24947 29798 38226 47636 
956.52  55449 60649 63722 65418 66062 65757 
979.66  64811 63837 63167 62136 59737 56510 
1002.80  54716 55566 57404 58073 57966 58891 
1025.95  60785 61553 59651 55371 50043 45083 
1049.09  41221 38352 37042 39296 45929 54218 
1072.23  60355 63327 64628 65396 65662 65476 
1095.37  65098 64546 63739 62692 61335 59495 
1118.51  57055 53995 50394 46439 42315 38117 
1141.65  33969 30118 26830 24277 22470 21292 
1164.80  20687 20692 21137 21496 21419 21351 
1187.94  22291 24813 28441 32034 34682 36203 
1211.08  36972 37434 37855 38415 39458 41482 
1234.22  44698 48590 52149 54599 55757 55707 
1257.36  54473 52002 48249 43606 39511 37923 
1280.51  39552 43091 46647 49452 51774 53698 
1303.65  54752 54624 53607 52035 49715 46554 
1326.79  43495 41957 42456 44031 44818 43337 
1349.93  39437 34286 29625 26560 24892 23792 
1373.07  22871 22504 23430 25874 29044 31649 
1396.21  33187 34369 35902 37718 39637 41814 
1419.36  44244 46359 47652 48007 47388 45810 
1442.50  43466 40675 37577 33909 29920 27262 
1465.64  27079 29482 34410 40624 46415 51548 
1488.78  56283 60203 62899 64679 65996 67199 
1511.92  68338 69235 69959 70801 71695 72296 
1535.06  72551 72778 73368 74063 74447 74508 
1558.21  74597 74981 75344 75492 75585 75813 
1581.35  76089 76263 76315 76281 76184 76040 
1604.49  75897 75797 75711 75570 75361 75129 
1627.63  74852 74471 74067 73804 73629 73404 
1650.77  73249 73400 73663 73804 73941 74308 
1673.91  74824 75244 75632 76181 76729 76986 
1697.06  76985 77097 77452 77706 77731 77769 
1720.20  78044 78322 78362 78233 78198 78305 
1743.34  78374 78383 78467 78660 78863 79005 
1766.48  79091 79184 79360 79581 79718 79702 
1789.62  79567 79389 79205 79007 78746 78369 
1812.77  77916 77543 77384 77506 77911 78426 
1835.91  78800 78959 79011 79090 79184 79189 
1859.05  79070 78889 78749 78713 78768 78861 
1882.19  78963 79087 79254 79453 79640 79783 
1905.33  79879 79946 79996 80029 80049 80076 
1928.47  80122 80158 80152 80131 80164 80259 
1951.62  80331 80326 80292 80301 80343 80377 
1974.76  80405 80441 80460 80440 80411 80415 
1997.90  80457 80517 80574 80612 80628 80634 
2021.04  80636 80625 80600 80564 80518 80465 
2044.18  80407 80341 80262 80162 80045 79930 
2067.32  79842 79785 79731 79648 79539 79442 
2090.47  79395 79390 79385 79370 79375 79416 
2113.61  79460 79483 79519 79612 79754 79901 
2136.75  80023 80117 80171 80164 80104 80039 
2159.89  80006 80003 80008 80025 80061 80096 
2183.03  80092 80051 80010 79987 79951 79873 
2206.18  79768 79674 79606 79559 79539 79550 
2229.32  79572 79578 79551 79487 79379 79235 
2252.46  79085 78964 78899 78885 78877 78818 
2275.60  78706 78605 78547 78476 78315 78072 
2298.74  77834 77656 77497 77278 76973 76615 
2321.88  76251 75911 75617 75360 75172 75156 
2345.03  75287 75352 75199 74894 74719 74835 
2368.17  75131 75518 75922 76234 76396 76440 
2391.31  76450 76500 76611 76756 76901 77021 
2414.45  77093 77088 76991 76829 76651 76498 
2437.59  76383 76308 76280 76298 76355 76444 
2460.73  76563 76703 76839 76946 77005 77000 
2483.88  76924 76780 76577 76318 76004 75654 
2507.02  75286 74912 74536 74166 73814 73489 
2530.16  73189 72904 72640 72416 72246 72127 
2553.30  72049 71992 71932 71855 71780 71744 
2576.44  71764 71831 71937 72077 72227 72345 
2599.58  72411 72434 72429 72403 72363 72307 
2622.73  72217 72082 71917 71751 71600 71472 
2645.87  71382 71337 71311 71277 71249 71274 
2669.01  71363 71470 71538 71553 71533 71483 
2692.15  71370 71164 70864 70501 70129 69804 
2715.29  69537 69269 68920 68496 68091 67792 
2738.44  67591 67423 67241 67041 66816 66555 
2761.58  66260 65953 65643 65305 64889 64347 
2784.72  63629 62737 61762 60863 60160 59648 
2807.86  59226 58783 58205 57406 56323 54926 
2831.00  53220 51219 48852 46009 42815 39782 
2854.14  37405 35709 34382 33088 31437 29153 
2877.29  26649 24979 24772 25543 26316 26564 
2900.43  26272 25506 24335 22954 21633 20570 
2923.57  19893 19641 19685 19811 20019 20482 
2946.71  21104 21274 20387 18582 16687 15451 
2969.85  15102 15552 16798 19031 22517 27345 
2992.99  33171 39219 44698 49211 52792 55639 
3016.14  57897 59664 61051 62159 63075 63825 
3039.28  64431 64937 65367 65703 65917 66014 
3062.42  66028 65959 65796 65561 65308 65073 
3085.56  64860 64659 64463 64263 64041 63769 
3108.70  63422 62999 62520 62006 61444 60811 
3131.85  60120 59425 58752 58052 57267 56420 
3154.99  55555 54653 53656 52575 51479 50400 
3178.13  49310 48209 47130 46096 45070 44019 
3201.27  42963 41941 40937 39905 38855 37837 
3224.41  36849 35852 34861 33929 33050 32173 
3247.55  31279 30402 29565 28744 27902 27041 
3270.70  26227 25524 24899 24265 23595 22955 
3293.84  22403 21909 21422 20961 20588 20290 
3316.98  19978 19624 19295 19027 18768 18498 
3340.12  18263 18092 17974 17907 17868 17791 
3363.26  17667 17583 17592 17639 17663 17664 
3386.40  17660 17662 17700 17822 18048 18327 
3409.55  18589 18823 19069 19310 19486 19598 
3432.69  19750 20014 20366 20748 21137 21541 
3455.83  21975 22435 22951 23564 24273 25034 
3478.97  25835 26718 27696 28716 29775 30926 
3502.11  32208 33595 35037 36506 38013 39604 
3525.25  41333 43157 44979 46757 48531 50356 
3548.40  52227 54031 55669 57147 58585 60068 
3571.54  61500 62751 63808 64716 65548 66301 
3594.68  66843 66984 66645 65996 65462 65550 
3617.82  66415 67737 69276 71005 72637 73783 
3640.96  74452 74852 75194 75604 76031 76345 
3664.11  76436 76230 75794 75455 75411 75554 
3687.25  75863 76400 76998 77377 77472 77442 
3710.39  77525 77762 78004 78171 78284 78382 
3733.53  78515 78697 78848 78884 78867 78923 
3756.67  79013 79030 78987 78972 79008 79033 
3779.81  79026 79038 79079 79060 78892 78640 
3802.96  78536 78625 78657 78480 78257 78287 
3826.10  78475 78500 78299 78142 78198 78232 
3849.24  78075 77894 77918 77986 77895 77734 
3872.38  77700 77722 77636 77493 77463 77498 
3895.52  77414 77237 77227 77437 77615 77628 
3918.66  77569 77549 77544 77522 77518 77530 
3941.81  77532 77583 77746 77939 78027 78006 
3964.95  77963 77923 77843 77734 77671 77686 
3988.09  77731 77760 77791 77839 
##END= 
