##TITLE= Mattson Instruments
##JCAMP_DX= 4.24
##OWNER= 
##ORIGIN= 
##DATA TYPE= INFRARED SPECTRUM
##YUNITS= % Transmittance
##XUNITS= 1/CM
##FIRSTX= 401.12781972
##FIRSTY= 50.01200103
##LASTX= 3999.70720246
##XFACTOR= 1.00000000
##YFACTOR= 0.00093229
##MINY= 17.50552368
##MAXY= 78.60243225
##DELTAX= 3.85699826
##NPOINTS= 934
##XYDATA= (X++(Y..Y))
401.12  53644 54859 55800 56606 57656 59199 
424.26  61040 62776 64150 65126 65921 66652 
447.41  67287 67858 68460 69159 69887 70481 
470.55  70831 71083 71294 71084 70281 69031 
493.69  66605 61454 54214 49148 49970 55535 
516.83  61377 64013 63202 61361 61321 63833 
539.97  67089 69048 69586 69671 69694 69540 
563.12  69263 68983 68636 68232 67848 67458 
586.26  67023 66591 66200 65842 65583 65365 
609.40  64912 64185 63685 63867 64434 64748 
632.54  64639 64408 64233 64030 63732 63324 
655.68  62879 62493 62102 61593 61147 60211 
678.83  56269 47222 36346 31516 36377 46619 
701.97  55472 60259 62392 63470 63951 63909 
725.11  63303 61938 59368 54533 46397 35987 
748.25  26897 22718 24420 30750 39956 50073 
771.39  58852 64895 68486 70583 71619 71718 
794.54  70482 66035 56927 46365 41237 44479 
817.68  51363 55821 57584 60301 65375 70887 
840.82  74960 77455 78934 79816 80369 80665 
863.96  80572 79921 78404 75441 71014 66695 
887.10  64997 67106 71621 76036 79016 80757 
910.25  81792 82372 82676 82856 82945 82983 
933.39  83043 83086 83056 82949 82677 82211 
956.53  81810 81688 81659 81479 81131 80651 
979.67  80228 80135 79848 78124 75045 72836 
1002.81  73338 75635 76996 75356 71106 67457 
1025.96  67956 72409 76916 78795 78972 78920 
1049.10  78533 77575 75801 71659 64714 58958 
1072.24  59432 65675 72279 75585 76375 76499 
1095.38  76331 75694 74888 74306 73993 73703 
1118.52  73135 72226 71059 69575 67731 65421 
1141.67  61871 56550 51167 48370 47685 45906 
1164.81  42406 40240 40783 41255 39046 35120 
1187.95  31772 29726 28486 27527 26395 24793 
1211.09  22888 21110 19757 18969 18776 19072 
1234.23  19822 21228 23496 26506 29785 32832 
1257.38  35616 38800 43278 49331 56211 62484 
1280.52  66931 69281 70211 70697 71315 71902 
1303.66  71759 70523 68876 67896 67610 66977 
1326.80  65353 62870 59534 55373 51456 49063 
1349.94  47889 46610 44874 43586 43359 43945 
1373.09  45101 46812 48715 50301 51637 53315 
1396.23  55820 59106 62564 65412 67285 68348 
1419.37  69018 69595 69976 69949 69653 69369 
1442.51  68900 67819 65965 62719 56504 46883 
1465.65  35879 26792 23586 27034 32593 36052 
1488.80  35367 30614 25863 26883 36831 51433 
1511.94  61850 66097 67412 68079 68778 69649 
1535.08  70616 71624 72554 72795 71922 70367 
1558.22  69534 69998 70115 68549 65322 61131 
1581.36  55367 46357 34968 25699 22131 24148 
1604.51  30957 42018 54671 64650 70026 72749 
1627.65  74714 75859 76279 76707 76999 76738 
1650.79  76655 77638 78866 79396 79379 79357 
1673.93  79469 79400 79092 78939 78936 78445 
1697.07  77305 76597 76999 77510 77556 77807 
1720.22  78820 79830 80161 80081 80244 80689 
1743.36  80955 80991 81091 81294 81290 80880 
1766.50  80175 79529 79354 79683 80125 80381 
1789.64  80523 80786 81212 81633 81915 82108 
1812.78  82346 82555 82448 81931 81292 80770 
1835.93  80226 79601 79254 79511 80147 80731 
1859.07  81068 81236 81477 81978 82625 83118 
1882.21  83313 83319 83322 83382 83402 83275 
1905.35  82988 82582 82042 81313 80420 79539 
1928.49  78902 78657 78815 79260 79818 80360 
1951.64  80854 81319 81765 82172 82477 82626 
1974.78  82667 82725 82849 82958 82990 82989 
1997.92  83011 83040 83032 82970 82850 82694 
2021.06  82554 82468 82423 82372 82279 82144 
2044.20  82015 81957 81991 82087 82209 82353 
2067.35  82537 82758 82991 83208 83398 83558 
2090.49  83707 83863 84017 84139 84221 84269 
2113.63  84288 84274 84239 84199 84167 84147 
2136.77  84144 84158 84192 84237 84279 84305 
2159.91  84310 84293 84248 84184 84130 84108 
2183.06  84104 84093 84083 84103 84137 84141 
2206.20  84105 84057 84018 83985 83954 83916 
2229.34  83843 83730 83622 83531 83440 83350 
2252.48  83259 83169 83078 82987 82897 82806 
2275.62  82715 82625 82534 82443 82353 82262 
2298.77  82171 82081 81990 81899 81809 81718 
2321.91  81628 81537 81446 81356 81265 81174 
2345.05  81084 80993 80902 80812 80721 80630 
2368.19  80540 80449 80358 80268 80177 80087 
2391.33  80025 79682 79196 78716 78359 78162 
2414.48  78095 78122 78200 78269 78292 78280 
2437.62  78255 78211 78136 78038 77917 77767 
2460.76  77605 77460 77350 77282 77270 77325 
2483.90  77450 77630 77844 78078 78322 78559 
2507.04  78765 78929 79054 79148 79222 79274 
2530.19  79294 79276 79227 79147 79021 78845 
2553.33  78620 78348 78039 77721 77433 77205 
2576.47  77040 76921 76834 76772 76732 76714 
2599.61  76711 76719 76740 76788 76884 77034 
2622.75  77212 77380 77522 77658 77819 78001 
2645.90  78169 78285 78324 78275 78147 77983 
2669.04  77826 77685 77535 77350 77138 76926 
2692.18  76721 76492 76207 75875 75539 75255 
2715.32  75070 75011 75075 75241 75477 75754 
2738.46  76042 76311 76534 76701 76834 76971 
2761.61  77144 77359 77573 77737 77835 77903 
2784.75  77989 78101 78208 78267 78246 78129 
2807.89  77923 77653 77332 76955 76542 76154 
2831.03  75852 75656 75549 75497 75483 75512 
2854.17  75600 75739 75914 76111 76321 76522 
2877.32  76693 76828 76930 77006 77064 77109 
2900.46  77135 77129 77092 77011 76870 76664 
2923.60  76397 76042 75565 74992 74397 73795 
2946.74  73132 72405 71733 71279 71123 71215 
2969.88  71400 71497 71418 71184 70865 70525 
2993.03  70188 69810 69310 68588 67429 65551 
3016.17  63075 60793 59511 59036 58219 56218 
3039.31  53534 51610 51541 53235 55609 57482 
3062.45  58302 58234 57789 57420 57295 57270 
3085.59  57130 56900 56829 57047 57423 57799 
3108.74  58160 58505 58716 58682 58416 57998 
3131.88  57468 56839 56148 55431 54693 53924 
3155.02  53115 52267 51389 50493 49582 48651 
3178.16  47704 46751 45790 44825 43892 43044 
3201.30  42299 41620 40957 40296 39652 39033 
3224.45  38412 37759 37070 36368 35674 34991 
3247.59  34320 33669 33040 32431 31824 31214 
3270.73  30626 30098 29625 29149 28641 28144 
3293.87  27704 27298 26888 26510 26229 26019 
3317.01  25785 25505 25251 25059 24888 24718 
3340.16  24586 24509 24462 24432 24420 24402 
3363.30  24377 24398 24496 24639 24782 24916 
3386.44  25037 25149 25284 25478 25738 26034 
3409.58  26344 26673 27034 27415 27791 28182 
3432.72  28626 29128 29660 30207 30771 31333 
3455.87  31855 32315 32741 33166 33572 33905 
3479.01  34145 34326 34475 34588 34671 34778 
3502.15  34974 35286 35702 36188 36715 37293 
3525.29  37970 38761 39607 40443 41297 42299 
3548.43  43580 45142 46829 48539 50403 52625 
3571.58  55091 57431 59455 61283 63156 65148 
3594.72  67116 68898 70423 71657 72669 73652 
3617.86  74666 75473 75947 76418 77187 77871 
3641.00  77958 77530 77309 77821 78653 79160 
3664.14  79052 78441 77957 78249 78911 79163 
3687.29  78978 78964 79340 79605 79429 79065 
3710.43  78930 79040 79132 79063 78815 78463 
3733.57  78212 78185 78194 78091 78171 78707 
3756.71  79360 79723 79839 79972 80158 80232 
3779.85  80217 80289 80399 80258 79755 79228 
3803.00  79164 79469 79557 79162 78684 78692 
3826.14  78971 78886 78394 78158 78431 78565 
3849.28  78201 77836 77973 78198 78106 77984 
3872.42  78191 78471 78508 78472 78631 78792 
3895.56  78639 78365 78492 79010 79373 79364 
3918.71  79246 79272 79381 79490 79613 79705 
3941.85  79698 79681 79770 79916 80017 80074 
3964.99  80108 80106 80084 80093 80127 80136 
3988.13  80109 80086 80087 80088 
##END= 
