##TITLE= Mattson Instruments
##JCAMP_DX= 4.24
##OWNER= 
##ORIGIN= 
##DATA TYPE= INFRARED SPECTRUM
##YUNITS= % Transmittance
##XUNITS= 1/CM
##FIRSTX= 401.12781972
##FIRSTY= 48.00279998
##LASTX= 3999.70720246
##XFACTOR= 1.00000000
##YFACTOR= 0.00100019
##MINY= 0.00000102
##MAXY= 65.54669952
##DELTAX= 3.85699826
##NPOINTS= 934
##XYDATA= (X++(Y..Y))
401.12  47993 48103 48114 47993 48704 49626 
424.26  50795 52059 53235 54138 54699 54912 
447.41  54820 54528 54276 54280 54473 54667 
470.55  54778 54821 54776 54609 54275 53651 
493.69  52768 52035 51991 52727 53760 54607 
516.83  55106 55311 55306 55168 54961 54696 
539.97  54371 53994 53585 53147 52680 52188 
563.12  51665 51124 50573 50001 49420 48876 
586.26  48409 47993 47595 47196 46831 46511 
609.40  46189 45828 45447 45089 44786 44546 
632.54  44367 44235 44148 44111 44128 44206 
655.68  44331 44502 44738 45049 45392 45737 
678.83  46122 46565 47032 47500 47993 48547 
701.97  49102 49652 50205 50778 51382 52000 
725.11  52585 53114 53596 54011 54317 54491 
748.25  54489 54299 54102 54179 54514 54706 
771.39  54509 54244 54470 55357 56584 57719 
794.54  58554 59130 59543 59818 59986 60070 
817.68  59925 59328 58373 57544 57324 57658 
840.82  57539 55498 51469 47993 47993 51469 
863.96  55549 58036 59034 59469 59730 59796 
887.10  59614 59221 58579 57178 54439 50928 
910.25  47993 45824 43503 41388 41175 42979 
933.39  44298 42469 36691 27819 17977 10137 
956.53  6208 5325 5463 6694 11254 20030 
979.67  30483 38982 44132 46913 48487 49066 
1002.81  48607 47481 46266 45349 44846 44391 
1025.96  42840 38990 33438 28956 27894 29910 
1049.10  33264 37268 41962 46363 49003 49746 
1072.24  49628 49335 48809 47796 46009 43150 
1095.38  39192 34533 29976 26599 25093 24955 
1118.52  24924 24640 25226 27587 30565 31801 
1141.67  30645 29393 31013 36097 42572 47993 
1164.81  51291 53001 53896 54448 54817 55028 
1187.95  55080 54967 54713 54361 53917 53346 
1211.09  52623 51738 50674 49427 47993 46379 
1234.23  44404 42252 40364 39059 38255 37660 
1257.38  37200 37233 38209 40043 41941 43033 
1280.52  43097 42547 41934 41470 40820 39508 
1303.66  37737 36459 36234 36436 36059 34921 
1326.80  33631 32675 31976 31241 30613 30740 
1349.94  31812 33043 33559 33409 32939 31695 
1373.09  29436 27652 28337 31324 34413 35751 
1396.23  35290 33991 32494 31062 29848 28844 
1419.37  28054 27621 27483 27337 26972 26157 
1442.51  24373 21273 17051 12421 8973 8498 
1465.65  11562 18235 27406 35405 40283 43419 
1488.80  45993 47993 49405 50497 51434 52276 
1511.94  53037 53658 54168 54678 55144 55467 
1535.08  55684 55896 56150 56397 56589 56717 
1558.22  56841 57026 57205 57326 57418 57521 
1581.36  57628 57733 57836 57928 58007 58081 
1604.51  58138 58156 58126 58066 58030 58058 
1627.65  58110 58122 58096 58092 58127 58173 
1650.79  58222 58294 58385 58471 58551 58650 
1673.93  58770 58895 59024 59138 59189 59138 
1697.07  58916 58451 57916 57543 57470 57825 
1720.22  58410 58872 59204 59518 59807 60031 
1743.36  60217 60390 60550 60700 60839 60951 
1766.50  61030 61091 61155 61222 61280 61317 
1789.64  61330 61333 61341 61364 61399 61430 
1812.78  61440 61434 61422 61418 61434 61472 
1835.93  61503 61509 61500 61506 61538 61578 
1859.07  61606 61612 61598 61572 61536 61483 
1882.21  61401 61291 61170 61055 60953 60867 
1905.35  60809 60788 60803 60835 60864 60880 
1928.49  60889 60906 60951 61035 61150 61283 
1951.64  61418 61543 61645 61748 61831 61898 
1974.78  61946 61982 62016 62047 62070 62076 
1997.92  62067 62056 62060 62086 62129 62180 
2021.06  62231 62269 62295 62323 62365 62419 
2044.20  62469 62505 62536 62568 62587 62580 
2067.35  62547 62507 62481 62481 62507 62549 
2090.49  62600 62652 62690 62717 62753 62810 
2113.63  62873 62921 62951 62972 62981 62969 
2136.77  62938 62901 62869 62844 62821 62806 
2159.91  62813 62844 62883 62911 62921 62912 
2183.06  62885 62835 62770 62707 62652 62612 
2206.20  62582 62562 62550 62545 62537 62526 
2229.34  62528 62558 62604 62640 62652 62641 
2252.48  62618 62595 62579 62573 62577 62588 
2275.62  62601 62613 62625 62640 62654 62671 
2298.77  62700 62751 62817 62888 62961 63034 
2321.91  63104 63146 63147 63118 63076 63015 
2345.05  62946 62889 62845 62792 62713 62615 
2368.19  62531 62454 62368 62267 62175 62112 
2391.33  62082 62069 62057 62045 62044 62076 
2414.48  62143 62230 62311 62376 62415 62418 
2437.62  62378 62304 62214 62124 62044 61978 
2460.76  61925 61871 61811 61755 61701 61639 
2483.90  61570 61515 61478 61445 61407 61365 
2507.04  61324 61268 61190 61099 61014 60938 
2530.19  60861 60767 60628 60429 60186 59944 
2553.33  59758 59644 59582 59541 59500 59442 
2576.47  59346 59210 59041 58864 58710 58617 
2599.61  58608 58662 58743 58825 58899 58943 
2622.75  58925 58829 58650 58399 58095 57763 
2645.90  57410 57038 56683 56409 56266 56240 
2669.04  56272 56305 56289 56198 56045 55863 
2692.18  55673 55482 55311 55185 55103 55027 
2715.32  54929 54785 54564 54275 54026 53947 
2738.46  54056 54251 54412 54481 54461 54383 
2761.61  54275 54152 54012 53839 53600 53251 
2784.75  52762 52137 51413 50638 49833 48969 
2807.89  47993 46857 45507 43944 42212 40349 
2831.03  38333 36053 33370 30333 27309 24704 
2854.17  22552 20521 18245 15405 11954 8639 
2877.32  6961 7870 10685 13696 15642 16263 
2900.46  15780 14344 12095 9282 6319 3698 
2923.60  1895 958 616 811 2014 4271 
2946.74  6332 6392 4215 1475 0 90 
2969.88  1192 3304 7364 13905 22153 30315 
2993.03  37023 41908 45431 47993 49909 51372 
3016.17  52533 53453 54160 54697 55105 55424 
3039.31  55681 55878 56014 56101 56156 56178 
3062.45  56166 56128 56070 55979 55836 55646 
3085.59  55438 55229 54999 54716 54382 54019 
3108.74  53626 53193 52729 52261 51799 51309 
3131.88  50751 50126 49464 48761 47993 47167 
3155.02  46321 45466 44582 43665 42719 41745 
3178.16  40735 39698 38645 37584 36517 35444 
3201.30  34359 33263 32155 31035 29911 28796 
3224.45  27674 26527 25379 24279 23229 22204 
3247.59  21200 20245 19351 18499 17670 16863 
3270.73  16109 15460 14908 14378 13819 13274 
3293.87  12800 12384 11977 11605 11340 11166 
3317.01  10982 10749 10524 10355 10219 10107 
3340.16  10049 10057 10119 10247 10423 10584 
3363.30  10711 10885 11170 11522 11871 12197 
3386.44  12525 12880 13297 13805 14405 15066 
3409.58  15764 16495 17285 18104 18902 19677 
3432.72  20518 21475 22536 23656 24803 25970 
3455.87  27159 28383 29677 31070 32555 34078 
3479.01  35625 37208 38819 40413 41971 43509 
3502.15  45036 46535 47993 49154 50294 51441 
3525.29  52613 53782 54896 55934 56906 57837 
3548.43  58736 59580 60327 60965 61546 62141 
3571.58  62746 63271 63662 63947 64179 64385 
3594.72  64520 64528 64422 64263 64113 64006 
3617.86  63954 63924 63876 63894 64100 64451 
3641.00  64793 65045 65212 65353 65483 65534 
3664.14  65436 65159 64789 64531 64422 64332 
3687.29  64212 64117 64080 64033 63915 63730 
3710.43  63558 63445 63348 63202 62978 62695 
3733.57  62409 62167 61931 61633 61326 61137 
3756.71  61066 60999 60886 60745 60596 60456 
3779.85  60328 60191 60014 59817 59637 59482 
3803.00  59339 59201 59057 58884 58666 58442 
3826.14  58244 58021 57712 57379 57164 57027 
3849.28  56848 56604 56402 56255 56077 55840 
3872.42  55587 55334 55042 54739 54519 54387 
3895.56  54268 54119 53961 53810 53630 53393 
3918.71  53102 52793 52492 52225 52016 51828 
3941.85  51598 51346 51135 50951 50721 50437 
3964.99  50151 49892 49638 49377 49113 48856 
3988.13  48629 48434 48234 47993 
##END= 
