##TITLE= Mattson Instruments
##JCAMP_DX= 4.24
##OWNER= 
##ORIGIN= 
##DATA TYPE= INFRARED SPECTRUM
##YUNITS= % Transmittance
##XUNITS= 1/CM
##FIRSTX= 401.12781972
##FIRSTY= 45.37517166
##LASTX= 3999.70720246
##XFACTOR= 1.00000000
##YFACTOR= 0.00095521
##MINY= 0.00000102
##MAXY= 62.59902954
##DELTAX= 3.85699826
##NPOINTS= 934
##XYDATA= (X++(Y..Y))
401.12  47502 47502 48466 48772 48590 48311 
424.26  48142 48148 48427 49036 49985 51141 
447.41  52261 53174 53951 54754 55490 55977 
470.55  56281 56606 56918 57037 57010 56989 
493.69  56956 56805 56576 56387 56209 55932 
516.83  55570 55235 54970 54709 54404 54038 
539.97  53612 53148 52686 52247 51808 51331 
563.12  50812 50270 49719 49155 48597 48049 
586.26  47502 46951 46413 45916 45469 45057 
609.40  44652 44250 43879 43553 43260 42949 
632.54  42590 42222 41906 41633 41381 41214 
655.68  41161 41056 40766 40489 40557 40870 
678.83  41101 41189 41294 41492 41735 42011 
701.97  42326 42649 42950 43238 43533 43843 
725.11  44168 44494 44813 45135 45464 45801 
748.25  46143 46488 46827 47161 47502 48069 
771.39  48627 49171 49685 50144 50538 50766 
794.54  50638 50190 49931 50456 51790 53386 
817.68  54737 55764 56611 57333 57936 58486 
840.82  59017 59460 59757 59867 59669 58998 
863.96  57473 54020 47502 38006 30618 29397 
887.10  34319 41577 47502 51828 54492 56237 
910.25  57432 58294 58939 59417 59781 60056 
933.39  60238 60339 60371 60333 60260 60214 
956.53  60192 60144 60043 59881 59654 59356 
979.67  58979 58512 57959 57328 56607 55773 
1002.81  54786 53559 52002 50031 47502 44154 
1025.96  39827 34253 27139 18684 10089 3267 
1049.10  0 1195 6294 13077 18648 21190 
1072.24  20705 18160 14555 10893 8418 8417 
1095.38  11618 17592 24761 31313 36272 39660 
1118.52  41924 43490 44690 45735 46684 47502 
1141.67  48206 48747 49180 49620 50188 50909 
1164.81  51676 52342 52839 53185 53422 53570 
1187.95  53644 53660 53632 53571 53491 53398 
1211.09  53283 53137 52956 52730 52454 52129 
1234.23  51755 51319 50805 50204 49488 48611 
1257.38  47502 46075 44318 42543 41376 41245 
1280.52  41898 42642 42956 42749 42143 41261 
1303.66  40207 39093 38018 37070 36319 35801 
1326.80  35483 35297 35252 35477 36030 36708 
1349.94  37209 37402 37257 36554 34886 32107 
1373.09  28761 26066 25082 25791 27275 28550 
1396.23  29175 29310 29217 28925 28381 27710 
1419.37  27250 27205 27404 27670 27969 28190 
1442.51  28116 27665 27013 26741 27676 29662 
1465.65  31682 33319 34755 36056 37024 37769 
1488.80  38923 40888 42894 44135 44777 45519 
1511.94  46463 47117 47502 48226 49296 50022 
1535.08  50040 49826 50409 51476 51983 51768 
1558.22  51658 52372 53173 53520 53720 54209 
1581.36  54832 55229 55359 55395 55421 55386 
1604.51  55262 55053 54702 54211 53822 53702 
1627.65  53601 53275 52892 52694 52435 51839 
1650.79  51346 51715 52445 52740 52651 52712 
1673.93  53079 53360 53533 54046 54776 55075 
1697.07  54867 55021 55895 56550 56578 56587 
1720.22  57209 57847 57864 57471 57345 57545 
1743.36  57592 57489 57591 57937 58248 58359 
1766.50  58292 58238 58475 58983 59410 59531 
1789.64  59446 59436 59653 59994 60275 60460 
1812.78  60655 60841 60824 60596 60508 60748 
1835.93  60984 60944 60825 60957 61279 61490 
1859.07  61442 61197 60983 61029 61277 61445 
1882.21  61379 61187 61055 61033 61017 60888 
1905.35  60615 60236 59761 59193 58704 58603 
1928.49  58981 59588 60138 60558 60922 61260 
1951.64  61519 61656 61693 61697 61733 61827 
1974.78  61957 62074 62133 62144 62175 62275 
1997.92  62410 62510 62553 62560 62556 62565 
2021.06  62605 62662 62701 62708 62699 62688 
2044.20  62683 62681 62667 62627 62559 62489 
2067.35  62432 62380 62319 62248 62182 62131 
2090.49  62111 62123 62157 62193 62204 62179 
2113.63  62121 62042 61948 61844 61753 61697 
2136.77  61702 61772 61882 61995 62075 62121 
2159.91  62150 62174 62189 62194 62203 62222 
2183.06  62257 62305 62366 62436 62496 62539 
2206.20  62571 62605 62638 62665 62689 62710 
2229.34  62730 62741 62729 62721 62713 62704 
2252.48  62696 62688 62680 62671 62663 62655 
2275.62  62646 62638 62630 62621 62613 62605 
2298.77  62596 62588 62580 62571 62563 62555 
2321.91  62546 62538 62530 62521 62513 62505 
2345.05  62496 62488 62480 62472 62463 62455 
2368.19  62447 62438 62430 62422 62413 62405 
2391.33  62397 62388 62380 62372 62363 62355 
2414.48  62347 62423 62554 62693 62798 62855 
2437.62  62876 62872 62837 62761 62633 62458 
2460.76  62259 62057 61858 61662 61468 61283 
2483.90  61110 60950 60788 60632 60500 60408 
2507.04  60355 60326 60310 60293 60260 60198 
2530.19  60107 60010 59940 59927 59984 60108 
2553.33  60277 60454 60610 60733 60828 60894 
2576.47  60939 60969 60976 60953 60914 60875 
2599.61  60843 60808 60761 60693 60601 60495 
2622.75  60400 60335 60291 60249 60190 60108 
2645.90  60009 59898 59775 59633 59464 59259 
2669.04  59008 58710 58365 57978 57553 57106 
2692.18  56650 56195 55765 55385 55046 54692 
2715.32  54280 53842 53446 53137 52901 52705 
2738.46  52523 52358 52225 52139 52103 52090 
2761.61  52059 51989 51872 51695 51431 51065 
2784.75  50595 50017 49312 48466 47502 46520 
2807.89  45584 44738 43947 43131 42224 41218 
2831.03  40159 39094 38022 36890 35621 34159 
2854.17  32488 30608 28531 26341 24263 22576 
2877.32  21443 20836 20608 20608 20764 21122 
2900.46  21773 22683 23616 24257 24403 24095 
2923.60  23660 23541 23997 24953 26165 27360 
2946.74  28210 28261 27063 24374 20413 16000 
2969.88  12433 11015 12471 16579 22297 28274 
2993.03  33519 37619 40684 42941 44602 45841 
3016.17  46785 47502 48028 48395 48643 48792 
3039.31  48857 48842 48753 48595 48384 48131 
3062.45  47837 47502 47158 46778 46355 45902 
3085.59  45447 44984 44480 43926 43351 42773 
3108.74  42173 41528 40850 40171 39500 38815 
3131.88  38099 37370 36646 35912 35156 34388 
3155.02  33629 32873 32104 31320 30534 29753 
3178.16  28976 28207 27452 26719 26004 25302 
3201.30  24614 23938 23267 22604 21964 21349 
3224.45  20744 20144 19580 19080 18627 18188 
3247.59  17750 17335 16956 16601 16243 15882 
3270.73  15548 15275 15062 14856 14617 14371 
3293.87  14163 13991 13822 13671 13585 13553 
3317.01  13501 13409 13354 13356 13364 13366 
3340.16  13400 13480 13573 13681 13807 13937 
3363.30  14075 14260 14528 14853 15200 15543 
3386.44  15864 16188 16561 17006 17505 18042 
3409.58  18602 19161 19736 20324 20913 21518 
3432.72  22180 22913 23680 24469 25288 26135 
3455.87  26984 27806 28646 29560 30551 31552 
3479.01  32532 33542 34622 35731 36814 37876 
3502.15  38969 40125 41368 42623 43810 44945 
3525.29  46159 47502 48554 49493 50312 51120 
3548.43  52064 53116 54068 54733 55265 56057 
3571.58  57156 58143 58739 59061 59427 59988 
3594.72  60630 61200 61647 61914 62044 62270 
3617.86  62715 63121 63282 63510 64140 64760 
3641.00  64801 64246 63838 64248 65052 65534 
3664.14  65399 64682 63926 63906 64336 64451 
3687.29  64184 64093 64411 64629 64396 63905 
3710.43  63572 63473 63376 63144 62717 62107 
3733.57  61543 61272 61102 60737 60443 60663 
3756.71  61121 61333 61285 61246 61251 61119 
3779.85  60857 60695 60655 60416 59761 58956 
3803.00  58623 58779 58770 58234 57520 57322 
3826.14  57504 57331 56606 56023 56098 56198 
3849.28  55800 55240 55116 55144 54867 54482 
3872.42  54383 54406 54226 53975 53935 53907 
3895.56  53545 52996 52832 53109 53248 52975 
3918.71  52521 52190 51970 51772 51616 51433 
3941.85  51131 50802 50593 50446 50232 49971 
3964.99  49727 49477 49202 48940 48699 48447 
3988.13  48194 47968 47749 47502 
##END= 
