##TITLE= Mattson Instruments
##JCAMP_DX= 4.24
##OWNER= 
##ORIGIN= 
##DATA TYPE= INFRARED SPECTRUM
##YUNITS= % Transmittance
##XUNITS= 1/CM
##FIRSTX= 401.12365566
##FIRSTY= 59.70263671
##LASTX= 3999.66568195
##XFACTOR= 1.00000000
##YFACTOR= 0.00095643
##MINY= 11.34981060
##MAXY= 74.02874755
##DELTAX= 3.85695822
##NPOINTS= 934
##XYDATA= (X++(Y..Y))
401.12  62422 63678 64854 66042 67230 68278 
424.26  69019 69447 69651 69662 69362 68649 
447.40  67577 66215 64569 62836 61364 60196 
470.54  59049 57689 56072 54198 52132 50161 
493.69  48667 47971 48389 50024 52540 55443 
516.83  58337 60928 63068 64768 66080 67055 
539.97  67755 68221 68465 68501 68349 67977 
563.11  67313 66308 64962 63317 61472 59568 
586.25  57718 55954 54297 52867 51897 51585 
609.39  51906 52601 53326 53834 54042 53985 
632.54  53751 53472 53306 53354 53642 54173 
655.68  54910 55781 56763 57852 58943 59931 
678.82  60836 61675 62376 62906 63293 63551 
701.96  63676 63685 63594 63418 63164 62852 
725.10  62499 62118 61715 61287 60832 60354 
748.24  59826 59240 58591 57877 57116 56337 
771.39  55555 54784 54037 53299 52513 51624 
794.53  50454 48647 46121 43563 41960 41583 
817.67  41803 41908 41720 41390 40953 40211 
840.81  39073 38022 37934 39124 40835 42054 
863.95  42491 42459 42236 41891 41469 41010 
887.10  40497 39917 39290 38619 37920 37212 
910.24  36511 35841 35242 34745 34373 34144 
933.38  34089 34219 34543 35069 35795 36714 
956.52  37815 39064 40440 41921 43432 44855 
979.66  46051 46848 47110 47022 47127 47827 
1002.80  48986 50265 51606 53080 54501 55555 
1025.95  56146 56360 56251 55814 55027 53845 
1049.09  52230 50193 47774 45096 42362 39727 
1072.23  37378 35875 36063 38254 41747 45433 
1095.37  48641 51214 53148 54485 55352 55875 
1118.51  56092 56013 55647 54982 54019 52819 
1141.65  51471 50034 48526 46962 45386 43883 
1164.80  42533 41348 40296 39367 38594 37966 
1187.94  37392 36782 36119 35434 34726 33945 
1211.08  33012 31841 30346 28493 26366 24191 
1234.22  22347 21331 21615 23303 25935 28739 
1257.36  31105 32809 33866 34315 34165 33472 
1280.51  32399 31243 30468 30588 31840 33949 
1303.65  36262 38113 39051 38930 38043 37082 
1326.79  36616 36663 36936 37344 38090 39318 
1349.93  40869 42405 43564 44101 44000 43281 
1373.07  41752 39443 37260 36339 36753 37403 
1396.21  37199 35928 33866 31445 29305 28116 
1419.36  28141 28920 30029 31589 33638 35690 
1442.50  37194 38062 38344 37661 35446 32603 
1465.64  31082 32236 36241 40923 44294 46774 
1488.78  49069 51073 52625 53930 55067 55996 
1511.92  56787 57432 57831 58042 58258 58503 
1535.06  58682 58718 58713 58871 59106 59162 
1558.21  58882 58578 58444 58246 57853 57423 
1581.35  57091 56762 56315 55739 55105 54454 
1604.49  53748 52956 52078 51053 49876 48754 
1627.63  47784 46730 45424 44168 43198 42196 
1650.77  40731 39122 37978 37097 35988 34416 
1673.91  32683 30925 28660 25853 23469 21776 
1697.06  19882 17138 14608 13033 12118 11866 
1720.20  12377 13376 14998 17681 20884 23339 
1743.34  25028 26653 28738 31487 34653 37687 
1766.48  40211 42281 44037 45451 46572 47512 
1789.62  48252 48752 49101 49387 49616 49821 
1812.77  50054 50308 50522 50638 50687 50800 
1835.91  51032 51282 51452 51609 51913 52415 
1859.05  53047 53707 54300 54789 55212 55621 
1882.19  56020 56367 56641 56878 57117 57356 
1905.33  57569 57748 57902 58030 58124 58211 
1928.47  58331 58489 58643 58753 58821 58862 
1951.62  58878 58876 58887 58933 58997 59065 
1974.76  59158 59302 59484 59668 59835 59985 
1997.90  60130 60268 60388 60498 60628 60791 
2021.04  60981 61193 61424 61654 61847 61980 
2044.18  62056 62082 62048 61943 61768 61536 
2067.32  61279 61052 60925 60942 61099 61349 
2090.47  61629 61882 62071 62183 62218 62169 
2113.61  62041 61849 61612 61355 61095 60839 
2136.75  60590 60358 60138 59907 59652 59392 
2159.89  59164 59001 58913 58890 58897 58894 
2183.03  58881 58911 59058 59351 59750 60180 
2206.18  60570 60864 61018 61028 60941 60820 
2229.32  60697 60572 60431 60263 60048 59774 
2252.46  59446 59099 58775 58516 58341 58223 
2275.60  58112 57987 57863 57759 57665 57556 
2298.74  57422 57279 57149 57047 56988 56974 
2321.88  56962 56883 56723 56497 56170 55740 
2345.03  55350 55104 54913 54614 54179 53747 
2368.17  53385 53052 52733 52429 52126 51815 
2391.31  51505 51197 50875 50523 50139 49736 
2414.45  49342 48979 48657 48373 48105 47824 
2437.59  47505 47137 46726 46302 45905 45565 
2460.73  45294 45082 44898 44703 44473 44200 
2483.88  43881 43522 43142 42753 42355 41949 
2507.02  41536 41123 40717 40320 39924 39510 
2530.16  39064 38584 38082 37574 37077 36622 
2553.30  36247 35984 35836 35793 35844 35965 
2576.44  36115 36255 36362 36432 36457 36433 
2599.58  36364 36263 36135 35958 35707 35373 
2622.73  34975 34550 34140 33789 33534 33375 
2645.87  33273 33193 33123 33072 33048 33060 
2669.01  33114 33201 33307 33420 33540 33666 
2692.15  33800 33942 34084 34206 34289 34326 
2715.29  34319 34269 34176 34052 33914 33775 
2738.44  33641 33523 33446 33427 33457 33507 
2761.58  33550 33575 33584 33577 33555 33517 
2784.72  33459 33373 33255 33113 32953 32775 
2807.86  32582 32384 32186 31987 31785 31578 
2831.00  31369 31150 30909 30640 30352 30057 
2854.14  29747 29406 29028 28624 28186 27692 
2877.29  27141 26586 26119 25823 25708 25701 
2900.43  25701 25643 25503 25270 24959 24623 
2923.57  24320 24077 23885 23679 23371 22999 
2946.71  22775 22878 23211 23486 23521 23329 
2969.85  22976 22482 21891 21349 21063 21176 
2992.99  21672 22385 23104 23675 24055 24285 
3016.14  24428 24513 24545 24547 24550 24555 
3039.28  24557 24575 24639 24743 24853 24951 
3062.42  25053 25163 25255 25304 25319 25335 
3085.56  25371 25412 25447 25483 25535 25594 
3108.70  25640 25677 25742 25861 26011 26149 
3131.85  26272 26426 26626 26830 27004 27182 
3154.99  27406 27644 27835 27983 28144 28331 
3178.13  28494 28610 28727 28889 29066 29207 
3201.27  29332 29498 29706 29908 30091 30297 
3224.41  30546 30802 31037 31273 31541 31828 
3247.55  32094 32338 32588 32860 33134 33388 
3270.70  33618 33840 34073 34331 34610 34890 
3293.84  35166 35462 35792 36131 36455 36791 
3316.98  37165 37542 37891 38245 38638 39033 
3340.12  39381 39704 40055 40437 40811 41172 
3363.26  41565 42019 42494 42937 43376 43883 
3386.40  44463 45043 45589 46131 46692 47245 
3409.55  47770 48298 48856 49437 50029 50643 
3432.69  51276 51895 52479 53050 53639 54246 
3455.83  54878 55555 56256 56915 57504 58072 
3478.97  58668 59278 59878 60501 61160 61791 
3502.11  62329 62807 63312 63861 64389 64834 
3525.25  65212 65598 66029 66466 66858 67205 
3548.40  67547 67914 68316 68735 69107 69378 
3571.54  69615 69918 70272 70565 70732 70845 
3594.68  70992 71168 71338 71494 71646 71798 
3617.82  71969 72170 72374 72555 72755 73037 
3640.96  73405 73801 74105 74298 74528 74841 
3664.11  75150 75364 75482 75619 75839 76074 
3687.25  76239 76326 76416 76539 76639 76692 
3710.39  76745 76821 76878 76919 77004 77159 
3733.53  77301 77344 77324 77311 77305 77280 
3756.67  77258 77253 77229 77166 77104 77062 
3779.81  76997 76906 76862 76891 76930 76930 
3802.96  76946 77037 77155 77233 77251 77257 
3826.10  77295 77342 77358 77356 77381 77400 
3849.24  77355 77283 77288 77324 77269 77138 
3872.38  77068 77072 77031 76916 76841 76852 
3895.52  76845 76737 76603 76569 76597 76595 
3918.66  76557 76545 76559 76543 76503 76480 
3941.81  76449 76365 76264 76211 76196 76183 
3964.95  76187 76230 76281 76297 76284 76252 
3988.09  76167 76006 75806 75615 
##END= 
