##TITLE= Mattson Instruments
##JCAMP_DX= 4.24
##OWNER= 
##ORIGIN= 
##DATA TYPE= INFRARED SPECTRUM
##YUNITS= % Transmittance
##XUNITS= 1/CM
##FIRSTX= 401.12365566
##FIRSTY= 64.76328277
##LASTX= 3999.66568195
##XFACTOR= 1.00000000
##YFACTOR= 0.00100294
##MINY= 14.03284931
##MAXY= 79.75955200
##DELTAX= 3.85695822
##NPOINTS= 934
##XYDATA= (X++(Y..Y))
401.12  64573 65626 66641 67701 68903 69972 
424.26  70704 71204 71474 71293 70589 69628 
447.40  68822 68383 68099 67663 67070 65895 
470.54  62646 56866 51611 51072 55820 62682 
493.69  68481 72335 74795 76375 77388 78113 
516.83  78631 78928 79090 79184 79181 79148 
539.97  79212 79350 79462 79525 79525 79399 
563.11  79118 78680 78090 77398 76592 75499 
586.25  73849 71393 68099 64481 61473 59676 
609.39  58961 58589 57323 54348 50854 49861 
632.54  53268 59565 65674 69936 72504 74001 
655.68  74842 75342 75686 75856 75847 75753 
678.82  75636 75476 75256 75007 74780 74575 
701.96  74289 73836 73284 72767 72305 71830 
725.10  71317 70771 70172 69532 68922 68388 
748.24  67906 67440 66970 66484 65986 65490 
771.39  65001 64516 64041 63586 63147 62712 
794.53  62272 61831 61386 60934 60482 60051 
817.67  59659 59314 59005 58714 58438 58170 
840.81  57873 57509 57072 56570 55979 55288 
863.95  54542 53803 53085 52347 51516 50586 
887.10  49775 49429 49608 49914 49900 49493 
910.24  48871 48147 47350 46546 45828 45252 
933.38  44868 44732 44878 45309 46025 47029 
956.52  48312 49824 51459 53088 54601 55901 
979.66  56876 57426 57454 56844 55565 53810 
1002.80  51912 50119 48628 47864 48431 50553 
1025.95  53671 56773 59057 60174 60060 58957 
1049.09  57669 57319 58466 60639 62902 64681 
1072.23  65968 66962 67787 68481 69068 69572 
1095.37  70009 70384 70697 70947 71135 71260 
1118.51  71318 71310 71234 71085 70869 70612 
1141.65  70340 70048 69690 69206 68563 67766 
1164.80  66833 65750 64466 62947 61219 59331 
1187.94  57296 55123 52871 50620 48400 46200 
1211.08  44052 42054 40318 38917 37867 37122 
1234.22  36600 36213 35891 35590 35294 34989 
1257.36  34612 34054 33217 32052 30583 28900 
1280.51  27110 25325 23773 22857 23008 24493 
1303.65  27365 31462 36377 41466 46030 49577 
1326.79  52027 53614 54600 55151 55335 54926 
1349.93  53432 50855 48299 47101 47353 47866 
1373.07  47505 46069 44028 41946 40143 38563 
1396.21  36938 35155 33382 31922 31070 31016 
1419.36  31692 32775 33969 35230 36699 38507 
1442.50  40670 43095 45654 48232 50709 52982 
1465.64  55005 56791 58336 59627 60674 61502 
1488.78  62120 62545 62813 62926 62835 62527 
1511.92  62148 61968 62209 62902 63886 64929 
1535.06  65852 66586 67154 67621 68034 68392 
1558.21  68666 68846 68958 69029 69054 69017 
1581.35  68922 68778 68580 68319 67991 67584 
1604.49  67084 66477 65739 64835 63728 62404 
1627.63  60865 59118 57201 55240 53417 51848 
1650.77  50498 49234 47927 46491 44871 43051 
1673.91  41056 38880 36444 33656 30499 27029 
1697.06  23410 19973 17136 15176 14159 13991 
1720.20  14482 15446 16858 18839 21452 24448 
1743.34  27208 28989 29499 29355 29731 31362 
1766.48  34001 36839 39298 41407 43636 46423 
1789.62  49750 53111 55970 58174 59887 61281 
1812.77  62407 63284 63948 64448 64835 65160 
1835.91  65460 65740 65991 66213 66432 66674 
1859.05  66946 67233 67510 67758 67977 68184 
1882.19  68394 68603 68799 68974 69134 69307 
1905.33  69535 69842 70214 70608 70977 71299 
1928.47  71567 71789 71971 72122 72250 72354 
1951.62  72431 72489 72554 72640 72727 72796 
1974.76  72847 72893 72941 72994 73046 73093 
1997.90  73133 73168 73193 73201 73189 73165 
2021.04  73128 73078 73030 73001 72998 73014 
2044.18  73043 73082 73123 73156 73175 73183 
2067.32  73189 73197 73209 73226 73248 73271 
2090.47  73291 73301 73298 73276 73225 73142 
2113.61  73031 72897 72741 72559 72352 72129 
2136.75  71897 71670 71477 71353 71304 71300 
2159.89  71307 71326 71389 71525 71733 71983 
2183.03  72231 72446 72616 72746 72850 72935 
2206.18  72993 73016 73003 72948 72841 72678 
2229.32  72470 72225 71921 71520 71028 70537 
2252.46  70184 70050 70104 70238 70350 70386 
2275.60  70334 70202 70015 69811 69642 69555 
2298.74  69565 69651 69779 69917 70049 70163 
2321.88  70252 70309 70327 70302 70224 70086 
2345.03  69909 69740 69607 69478 69285 69000 
2368.17  68655 68307 68003 67761 67572 67408 
2391.31  67242 67054 66830 66568 66276 65972 
2414.45  65664 65357 65058 64773 64509 64262 
2437.59  64020 63772 63519 63268 63016 62758 
2460.73  62493 62230 61976 61722 61453 61151 
2483.88  60805 60413 59977 59502 58992 58448 
2507.02  57866 57242 56576 55870 55123 54328 
2530.16  53484 52602 51703 50819 49996 49298 
2553.30  48790 48524 48522 48755 49147 49588 
2576.44  49973 50234 50338 50273 50039 49641 
2599.58  49088 48390 47564 46625 45593 44514 
2622.73  43486 42678 42280 42383 42884 43516 
2645.87  44020 44278 44319 44226 44070 43879 
2669.01  43652 43399 43163 43013 43000 43119 
2692.15  43326 43573 43844 44148 44504 44896 
2715.29  45271 45566 45757 45870 45939 45974 
2738.44  45964 45897 45767 45576 45335 45058 
2761.58  44766 44481 44227 44013 43834 43685 
2784.72  43556 43444 43355 43300 43281 43280 
2807.86  43264 43209 43102 42947 42745 42503 
2831.00  42232 41943 41649 41364 41092 40832 
2854.14  40572 40296 39993 39652 39264 38828 
2877.29  38346 37820 37247 36635 36003 35375 
2900.43  34756 34148 33569 33043 32583 32195 
2923.57  31887 31665 31525 31460 31480 31605 
2946.71  31835 32134 32433 32655 32735 32634 
2969.85  32360 31965 31528 31122 30796 30555 
2992.99  30370 30203 30042 29892 29763 29658 
3016.14  29578 29517 29464 29404 29326 29237 
3039.28  29153 29092 29060 29059 29092 29158 
3062.42  29245 29344 29445 29536 29604 29640 
3085.56  29644 29634 29623 29613 29607 29614 
3108.70  29646 29703 29776 29866 29978 30116 
3131.85  30280 30466 30669 30880 31090 31291 
3154.99  31479 31653 31818 31973 32112 32235 
3178.13  32350 32467 32594 32728 32876 33043 
3201.27  33232 33434 33647 33876 34122 34381 
3224.41  34647 34917 35195 35489 35800 36127 
3247.55  36465 36822 37203 37601 38003 38408 
3270.70  38825 39265 39721 40183 40645 41114 
3293.84  41598 42096 42606 43130 43672 44226 
3316.98  44783 45344 45910 46478 47050 47632 
3340.12  48221 48803 49379 49956 50541 51134 
3363.26  51744 52381 53049 53741 54442 55140 
3386.40  55838 56541 57247 57955 58669 59383 
3409.55  60082 60757 61417 62062 62688 63303 
3432.69  63921 64543 65153 65739 66305 66861 
3455.83  67407 67936 68445 68942 69438 69934 
3478.97  70430 70921 71401 71857 72283 72684 
3502.11  73063 73427 73780 74123 74451 74755 
3525.25  75033 75284 75511 75718 75915 76109 
3548.40  76295 76457 76588 76701 76810 76914 
3571.54  76997 77055 77111 77180 77250 77303 
3594.68  77347 77408 77486 77565 77628 77680 
3617.82  77733 77793 77851 77892 77913 77934 
3640.96  77973 78026 78073 78103 78122 78148 
3664.11  78190 78244 78291 78320 78335 78352 
3687.25  78374 78389 78393 78400 78415 78430 
3710.39  78434 78430 78423 78418 78418 78421 
3733.53  78421 78423 78434 78441 78422 78378 
3756.67  78331 78305 78302 78309 78305 78279 
3779.81  78242 78214 78201 78202 78211 78217 
3802.96  78203 78170 78146 78144 78144 78117 
3826.10  78074 78048 78045 78037 78009 77989 
3849.24  77997 78002 77976 77942 77923 77906 
3872.38  77870 77827 77800 77782 77761 77744 
3895.52  77738 77723 77682 77632 77601 77589 
3918.66  77573 77549 77525 77498 77455 77403 
3941.81  77354 77306 77256 77210 77170 77133 
3964.95  77102 77084 77069 77040 77004 76985 
3988.09  76997 77025 77051 77066 
##END= 
