##TITLE= Mattson Instruments
##JCAMP_DX= 4.24
##OWNER= 
##ORIGIN= 
##DATA TYPE= INFRARED SPECTRUM
##YUNITS= % Transmittance
##XUNITS= 1/CM
##FIRSTX= 401.12781972
##FIRSTY= 61.25667572
##LASTX= 3999.70720246
##XFACTOR= 1.00000000
##YFACTOR= 0.00120606
##MINY= 0.00000102
##MAXY= 79.03824615
##DELTAX= 3.85699826
##NPOINTS= 934
##XYDATA= (X++(Y..Y))
401.12  50790 52657 53973 54836 55377 56075 
424.26  57227 58548 59710 60580 61174 61573 
447.41  61794 61686 61129 60472 60349 61029 
470.55  62211 63342 64108 64593 64949 65157 
493.69  65252 65313 65242 64982 64622 63753 
516.83  61517 58306 56396 57471 60466 63038 
539.97  64235 64647 64861 64922 64824 64628 
563.12  64279 63702 62888 61762 60167 57945 
586.26  54909 50790 45314 38837 32211 26921 
609.40  24783 26768 31353 35125 36333 36972 
632.54  40022 45521 50790 54373 55924 55972 
655.68  54369 50790 44693 38119 34929 37376 
678.83  43703 50790 56361 59858 61996 63354 
701.97  64173 64667 64984 65190 65329 65414 
725.11  65423 65376 65304 65195 65031 64785 
748.25  64452 64065 63605 62957 62047 60757 
771.39  58712 55487 50790 44463 37084 31586 
794.54  31644 37533 45247 50790 53237 53257 
817.68  50790 47027 44618 45204 46262 43929 
840.82  38466 34751 36803 43535 50790 55817 
863.96  58855 60817 62145 63095 63907 64596 
887.10  65055 65313 65473 65534 65464 65332 
910.25  65226 65114 64933 64670 64206 63373 
933.39  62178 60345 56800 50790 43310 37249 
956.53  34611 35830 39824 44108 46283 46225 
979.67  45336 43706 40400 36501 34987 37021 
1002.81  40608 43318 44620 45383 46528 48418 
1025.96  50790 53203 54936 55733 55692 55162 
1049.10  53920 50790 45831 41332 40133 41488 
1072.24  42617 43443 46180 50790 54248 55811 
1095.38  56122 55368 53332 50790 48728 46823 
1118.52  45265 45444 47907 50796 51762 50609 
1141.67  48551 45413 39997 33872 31844 36495 
1164.81  44525 50790 53878 55413 56538 57146 
1187.95  57276 57233 56994 56442 55644 54572 
1211.09  53012 50790 47763 43253 36783 29216 
1234.23  23335 22273 26690 33940 40548 44862 
1257.38  46933 47277 46616 45362 42549 37071 
1280.52  30585 26685 26439 27615 29159 32923 
1303.66  39546 45896 48548 47806 46850 47989 
1326.80  50790 53075 54043 53752 52787 51691 
1349.94  50790 50254 49228 47416 44443 39030 
1373.09  30649 22485 19809 24235 32259 39304 
1396.23  43519 45642 46627 46745 46107 44860 
1419.37  43048 40632 37460 33264 28068 22732 
1442.51  18600 16298 15445 15098 14797 15500 
1465.65  18415 23925 31121 37563 41973 45231 
1488.80  48200 50790 52643 53925 54913 55781 
1511.94  56533 57096 57537 58039 58569 58918 
1535.08  59044 59132 59409 59731 59836 59692 
1558.22  59540 59624 59763 59780 59750 59812 
1581.36  59940 60055 60153 60254 60357 60442 
1604.51  60486 60479 60421 60350 60334 60394 
1627.65  60447 60429 60381 60337 60221 59985 
1650.79  59783 59814 59936 59921 59759 59588 
1673.93  59482 59364 59225 59210 59338 59443 
1697.07  59486 59659 59997 60248 60319 60377 
1720.22  60593 60839 60950 60957 61002 61094 
1743.36  61136 61122 61135 61208 61292 61339 
1766.50  61341 61337 61391 61491 61556 61539 
1789.64  61475 61429 61437 61473 61482 61442 
1812.78  61391 61359 61321 61265 61229 61227 
1835.93  61201 61132 61096 61160 61273 61339 
1859.07  61307 61199 61100 61105 61200 61280 
1882.21  61275 61204 61115 61029 60946 60878 
1905.35  60842 60831 60815 60785 60772 60805 
1928.49  60868 60911 60913 60897 60887 60884 
1951.64  60880 60875 60874 60873 60863 60844 
1974.78  60821 60791 60750 60702 60661 60637 
1997.92  60635 60655 60685 60701 60698 60688 
2021.06  60684 60693 60715 60746 60772 60780 
2044.20  60778 60777 60777 60764 60734 60697 
2067.35  60673 60671 60684 60692 60680 60647 
2090.49  60605 60561 60519 60477 60443 60416 
2113.63  60396 60381 60367 60344 60309 60267 
2136.77  60213 60142 60058 59984 59941 59919 
2159.91  59886 59818 59731 59671 59684 59768 
2183.06  59862 59907 59895 59855 59805 59741 
2206.20  59656 59532 59342 59107 58923 58890 
2229.34  59008 59178 59302 59360 59391 59428 
2252.48  59472 59502 59502 59470 59427 59387 
2275.62  59349 59297 59250 59202 59154 59107 
2298.77  59059 59012 58964 58917 58869 58821 
2321.91  58774 58726 58679 58631 58584 58536 
2345.05  58489 58441 58393 58346 58298 58251 
2368.19  58203 58156 58108 58061 58013 57965 
2391.33  57805 57565 57478 57672 58025 58327 
2414.48  58491 58562 58585 58556 58467 58331 
2437.62  58184 58059 57942 57819 57740 57765 
2460.76  57867 57954 57977 57930 57802 57621 
2483.90  57512 57581 57768 57924 57973 57940 
2507.04  57865 57773 57706 57689 57698 57695 
2530.19  57692 57724 57792 57857 57875 57832 
2553.33  57741 57628 57520 57432 57349 57208 
2576.47  56946 56595 56320 56272 56432 56653 
2599.61  56819 56932 57022 57073 57058 56998 
2622.75  56939 56889 56826 56758 56740 56801 
2645.90  56892 56946 56936 56889 56836 56799 
2669.04  56759 56680 56561 56416 56242 56021 
2692.18  55759 55470 55187 54987 54926 54930 
2715.32  54844 54581 54107 53393 52561 51970 
2738.46  51931 52373 52962 53437 53734 53895 
2761.61  53992 54087 54166 54138 53954 53671 
2784.75  53386 53124 52823 52383 51718 50790 
2807.89  49625 48322 46985 45714 44561 43453 
2831.03  42182 40467 38050 34996 32054 30282 
2854.17  29814 29440 27890 25006 21325 17504 
2877.32  14609 13868 15328 17474 18740 18808 
2900.46  18082 16740 14836 12732 10869 9356 
2923.60  8057 6904 5972 5409 5414 6126 
2946.74  7339 8322 8182 6578 4065 1674 
2969.88  221 0 858 2490 4840 8299 
2993.03  13280 19476 25839 31353 35684 39022 
3016.17  41620 43643 45215 46441 47402 48189 
3039.31  48883 49503 50027 50452 50790 51051 
3062.45  51222 51325 51389 51434 51460 51463 
3085.59  51454 51475 51576 51763 51992 52221 
3108.74  52432 52620 52780 52915 53021 53082 
3131.88  53096 53079 53039 52967 52867 52763 
3155.02  52665 52563 52448 52318 52166 51997 
3178.16  51833 51702 51620 51589 51602 51653 
3201.30  51730 51816 51894 51964 52053 52179 
3224.45  52327 52477 52627 52781 52928 53048 
3247.59  53146 53241 53333 53404 53438 53432 
3270.73  53399 53362 53330 53280 53180 53038 
3293.87  52909 52826 52774 52727 52702 52720 
3317.01  52768 52821 52877 52940 53002 53051 
3340.16  53077 53072 53046 53018 53005 52999 
3363.30  53001 53029 53082 53135 53165 53170 
3386.44  53144 53088 53020 52962 52921 52891 
3409.58  52880 52890 52907 52909 52884 52840 
3432.72  52799 52778 52780 52806 52863 52948 
3455.87  53027 53069 53092 53133 53190 53229 
3479.01  53242 53251 53268 53285 53289 53289 
3502.15  53300 53335 53398 53473 53526 53541 
3525.29  53536 53536 53534 53502 53430 53356 
3548.43  53329 53352 53360 53305 53226 53208 
3571.58  53264 53295 53245 53150 53081 53055 
3594.72  53030 52980 52912 52836 52773 52768 
3617.86  52842 52928 52980 53069 53259 53432 
3641.00  53441 53291 53152 53176 53293 53363 
3664.14  53315 53146 52969 52959 53073 53131 
3687.29  53098 53096 53183 53253 53219 53118 
3710.43  53049 53049 53078 53093 53067 52990 
3733.57  52906 52884 52903 52890 52852 52879 
3756.71  52964 53015 53010 52993 52988 52978 
3779.85  52976 53029 53121 53176 53136 53027 
3803.00  52948 52944 52921 52785 52598 52536 
3826.14  52604 52631 52540 52452 52474 52483 
3849.28  52352 52175 52145 52211 52212 52146 
3872.42  52101 52072 52001 51917 51879 51850 
3895.56  51769 51687 51720 51843 51914 51880 
3918.71  51808 51764 51729 51669 51602 51546 
3941.85  51479 51403 51354 51340 51335 51330 
3964.99  51330 51323 51289 51224 51137 51032 
3988.13  50925 50846 50806 50790 
##END= 
