##TITLE= Mattson Instruments
##JCAMP_DX= 4.24
##OWNER= 
##ORIGIN= 
##DATA TYPE= INFRARED SPECTRUM
##YUNITS= % Transmittance
##XUNITS= 1/CM
##FIRSTX= 401.12781972
##FIRSTY= 59.10773849
##LASTX= 3999.70720246
##XFACTOR= 1.00000000
##YFACTOR= 0.00105320
##MINY= 9.29392147
##MAXY= 78.31434631
##DELTAX= 3.85699826
##NPOINTS= 934
##XYDATA= (X++(Y..Y))
401.12  56122 57639 58846 59742 60429 61103 
424.26  61773 62154 61920 61186 60799 61597 
447.41  63309 64999 66259 67269 68154 68862 
470.55  69456 70096 70740 71267 71728 72187 
493.69  72584 72857 73069 73296 73509 73654 
516.83  73739 73845 74010 74178 74301 74358 
539.97  74343 74244 74080 73876 73599 73173 
563.12  72518 71617 70560 69578 68973 68863 
586.26  69076 69316 69384 69241 68983 68795 
609.40  68863 69267 69914 70611 71218 71656 
632.54  71898 71984 71999 71966 71856 71716 
655.68  71597 71431 71152 70940 71084 71508 
678.83  71935 72279 72601 72924 73204 73419 
701.97  73569 73666 73711 73702 73651 73569 
725.11  73457 73318 73157 72991 72841 72723 
748.25  72631 72558 72497 72417 72296 72128 
771.39  71881 71484 70882 70001 68687 66738 
794.54  63798 59397 53862 49149 47612 49609 
817.68  53201 56184 57470 56881 54590 50615 
840.82  44851 38685 35966 39909 48951 58001 
863.96  63787 66835 68751 70105 70974 71603 
887.10  72113 72467 72722 72953 73127 73218 
910.25  73263 73260 73169 72997 72741 72330 
933.39  71706 70814 69399 67066 63743 59819 
956.53  55837 52627 51629 53909 58549 63107 
979.67  65925 67127 67450 67208 66388 64895 
1002.81  62450 58385 51719 42376 32919 27800 
1025.96  29526 36175 43542 48886 51914 53282 
1049.10  53406 52429 50432 47377 43170 38101 
1072.24  32962 28394 24603 22268 22924 27333 
1095.38  33975 40224 44661 47472 49228 50214 
1118.52  50624 50628 50262 49487 48267 46546 
1141.67  44240 41264 37581 33278 28584 23802 
1164.81  19298 15506 12803 11307 10788 10743 
1187.95  10629 10178 9528 9012 8824 8966 
1211.09  9407 10169 11283 12752 14521 16507 
1234.23  18622 20767 22841 24700 26170 27085 
1257.38  27371 27088 26381 25480 24803 24938 
1280.52  26364 29161 32979 37223 41303 44725 
1303.66  47118 48292 48135 46439 43235 39461 
1326.80  36568 35099 34203 32519 29364 25068 
1349.94  20525 17107 16567 19974 26343 33081 
1373.09  37868 40122 41395 43551 46620 49169 
1396.23  50394 50706 50382 49261 47172 43649 
1419.37  38522 33046 28141 23431 19529 18417 
1442.51  20136 22483 23834 23602 22097 21160 
1465.65  22675 27689 35818 43476 48220 51230 
1488.80  53761 55901 57417 58357 58884 59401 
1511.94  60091 60595 60903 61567 62586 63278 
1535.08  63401 63435 64188 65231 65751 65725 
1558.22  65836 66569 67246 67523 67705 68102 
1581.36  68549 68784 68777 68631 68439 68181 
1604.51  67790 67249 66545 65714 65024 64703 
1627.65  64534 64278 64073 64042 63885 63379 
1650.79  62844 62735 62668 62136 61079 59829 
1673.93  58733 57498 55581 53094 50628 47992 
1697.07  44583 40968 38512 36599 33704 28805 
1720.22  23109 18549 15081 12340 10539 9701 
1743.36  9548 9969 11045 13238 17016 22087 
1766.50  27728 33455 38896 43463 47064 50068 
1789.64  52672 54949 57161 59404 61467 63279 
1812.78  64932 66313 67253 67882 68527 69257 
1835.93  69824 70092 70215 70426 70672 70719 
1859.07  70493 70127 69871 69960 70375 70835 
1882.21  71131 71283 71415 71568 71673 71656 
1905.35  71503 71268 70992 70679 70386 70226 
1928.49  70216 70286 70439 70745 71174 71577 
1951.64  71823 71872 71755 71550 71346 71199 
1974.78  71127 71116 71139 71193 71295 71421 
1997.92  71495 71448 71266 70968 70583 70151 
2021.06  69723 69330 68944 68495 67933 67307 
2044.20  66806 66674 67022 67729 68560 69346 
2067.35  70020 70566 70989 71310 71558 71753 
2090.49  71916 72049 72145 72209 72268 72341 
2113.63  72427 72513 72589 72648 72683 72688 
2136.77  72678 72671 72665 72636 72564 72450 
2159.91  72316 72209 72170 72207 72297 72403 
2183.06  72486 72528 72522 72457 72354 72292 
2206.20  72360 72556 72786 72947 73007 73004 
2229.34  72994 73014 73065 73052 73039 73026 
2252.48  73013 73001 72988 72975 72962 72949 
2275.62  72936 72923 72910 72897 72885 72872 
2298.77  72859 72846 72833 72820 72807 72794 
2321.91  72781 72769 72756 72743 72730 72717 
2345.05  72704 72691 72678 72666 72653 72640 
2368.19  72627 72614 72601 72588 72575 72562 
2391.33  72550 72537 72524 72511 72498 72485 
2414.48  72472 72459 72447 72434 72421 72408 
2437.62  72395 72368 72329 72303 72293 72290 
2460.76  72302 72349 72431 72519 72579 72608 
2483.90  72622 72631 72629 72612 72587 72552 
2507.04  72505 72455 72418 72401 72389 72370 
2530.19  72338 72296 72249 72201 72155 72121 
2553.33  72113 72122 72114 72071 71991 71876 
2576.47  71708 71467 71169 70897 70765 70841 
2599.61  71086 71383 71634 71806 71917 71990 
2622.75  72038 72055 72029 71975 71926 71907 
2645.90  71921 71959 72014 72078 72143 72193 
2669.04  72222 72236 72233 72195 72123 72038 
2692.18  71953 71867 71788 71734 71705 71689 
2715.32  71685 71689 71667 71569 71383 71150 
2738.46  70925 70755 70667 70646 70636 70586 
2761.61  70512 70468 70466 70456 70398 70299 
2784.75  70187 70065 69906 69681 69380 68988 
2807.89  68488 67895 67261 66572 65729 64641 
2831.03  63209 61227 58682 56259 55097 55686 
2854.17  57254 58522 58822 58177 56623 54005 
2877.32  50494 46985 44680 44152 44868 45714 
2900.46  45906 45348 44352 43239 42086 40745 
2923.60  39115 37276 35167 32453 29051 25531 
2946.74  22720 21203 21329 23138 25841 27887 
2969.88  28067 26420 23974 21932 21134 21888 
2993.03  24015 27089 30682 34417 37937 40958 
3016.17  43370 45301 47074 49029 51303 53762 
3039.31  56138 58223 59944 61325 62431 63330 
3062.45  64085 64744 65317 65794 66191 66539 
3085.59  66855 67129 67353 67539 67717 67904 
3108.74  68081 68221 68331 68434 68539 68642 
3131.88  68745 68855 68961 69043 69099 69154 
3155.02  69218 69273 69303 69314 69311 69300 
3178.16  69300 69335 69402 69475 69542 69609 
3201.30  69679 69741 69791 69845 69922 70019 
3224.45  70113 70188 70248 70294 70319 70337 
3247.59  70363 70399 70430 70458 70489 70516 
3270.73  70534 70548 70570 70594 70606 70603 
3293.87  70599 70603 70605 70586 70554 70533 
3317.01  70529 70520 70492 70451 70415 70397 
3340.16  70398 70405 70394 70354 70298 70250 
3363.30  70220 70199 70176 70137 70078 70013 
3386.44  69956 69913 69869 69817 69765 69715 
3409.58  69643 69524 69370 69217 69076 68916 
3432.72  68680 68323 67859 67351 66842 66304 
3455.87  65710 65118 64667 64476 64600 65028 
3479.01  65670 66380 67035 67591 68014 68264 
3502.15  68366 68441 68568 68670 68621 68436 
3525.29  68273 68246 68290 68262 68098 67869 
3548.43  67741 67778 67817 67698 67561 67760 
3571.58  68292 68747 68890 68799 68694 68707 
3594.72  68787 68829 68741 68485 68120 67833 
3617.86  67730 67644 67413 67229 67372 67591 
3641.00  67478 67032 66799 67259 67998 68492 
3664.14  68557 68250 68030 68455 69159 69530 
3687.29  69601 69821 70313 70687 70704 70535 
3710.43  70500 70655 70784 70756 70561 70234 
3733.57  69945 69891 69947 69891 69886 70238 
3756.71  70740 71054 71171 71276 71424 71501 
3779.85  71493 71529 71615 71542 71164 70698 
3803.00  70637 70973 71156 70907 70525 70557 
3826.14  70856 70853 70464 70250 70533 70768 
3849.28  70605 70353 70431 70562 70450 70317 
3872.42  70469 70713 70784 70774 70873 70956 
3895.56  70806 70551 70602 70955 71166 71075 
3918.71  70895 70855 70918 71002 71098 71142 
3941.85  71068 70967 70964 71010 70993 70922 
3964.99  70859 70816 70799 70828 70891 70937 
3988.13  70933 70879 70782 70648 
##END= 
