##TITLE= Mattson Instruments
##JCAMP_DX= 4.24
##OWNER= 
##ORIGIN= 
##DATA TYPE= INFRARED SPECTRUM
##YUNITS= % Transmittance
##XUNITS= 1/CM
##FIRSTX= 401.12781972
##FIRSTY= 59.87377166
##LASTX= 3999.70720246
##XFACTOR= 1.00000000
##YFACTOR= 0.00120859
##MINY= 0.00000102
##MAXY= 79.20384979
##DELTAX= 3.85699826
##NPOINTS= 934
##XYDATA= (X++(Y..Y))
401.12  49540 49848 49928 49797 49648 49611 
424.26  49540 50521 51370 52125 52826 53511 
447.41  54157 54705 55191 55722 56268 56719 
470.55  57069 57396 57702 57945 58171 58422 
493.69  58661 58842 58997 59181 59391 59599 
516.83  59804 60034 60280 60507 60701 60871 
539.97  61011 61103 61178 61268 61364 61433 
563.12  61463 61480 61517 61600 61716 61838 
586.26  61941 62016 62088 62181 62284 62367 
609.40  62419 62428 62397 62364 62278 61984 
632.54  61514 61241 61457 61940 62303 62475 
655.68  62590 62662 62645 62612 62683 62827 
678.83  62920 62941 62973 63061 63167 63279 
701.97  63406 63491 63510 63523 63529 63474 
725.11  63408 63335 63128 62819 62474 61812 
748.25  60664 59107 56046 49540 41436 37026 
771.39  40645 49540 56908 60673 62390 63597 
794.54  64385 64799 65121 65309 65263 65139 
817.68  65080 65104 65236 65422 65532 65534 
840.82  65478 65361 65163 64903 64583 64165 
863.96  63588 62795 61800 60638 59172 57049 
887.10  53929 49540 43607 36105 27842 20776 
910.25  17446 19499 26334 35288 43485 49540 
933.39  53527 56204 58054 59343 60252 60905 
956.53  61368 61680 61884 62021 62108 62127 
979.67  62054 61862 61520 61006 60269 59130 
1002.81  57401 55276 53298 51602 49540 47050 
1025.96  44636 44015 45960 49540 52676 54945 
1049.10  56243 56836 56982 56827 56451 55892 
1072.24  55151 54192 52963 51418 49540 47527 
1095.38  45230 42854 40736 39093 37783 36383 
1118.52  34478 31834 28381 24137 19252 14096 
1141.67  9270 5329 2665 1170 484 282 
1164.81  394 914 1942 3269 4429 4913 
1187.95  4522 3445 2139 1035 352 45 
1211.09  0 99 314 741 1388 2387 
1234.23  3966 6271 9506 13584 18228 23090 
1257.38  27895 32378 36334 39687 42488 44791 
1280.52  46650 48180 49540 50755 51811 52619 
1303.66  53156 53474 53656 53777 53892 54032 
1326.80  54166 54202 54090 53885 53644 53307 
1349.94  52767 51971 50883 49540 48065 46302 
1373.09  44015 41647 40458 41240 43446 45765 
1396.23  47327 48162 48471 48154 47065 44942 
1419.37  41146 35344 28365 22080 18934 19606 
1442.51  21565 22672 23064 23687 25284 27904 
1465.65  31078 34539 38028 40918 42971 44525 
1488.80  45931 47333 48586 49540 50322 51193 
1511.94  52059 52622 52930 53279 53670 53813 
1535.08  53616 53340 53475 53866 54026 53848 
1558.22  53673 53898 54250 54483 54724 55131 
1581.36  55622 56069 56437 56736 56984 57163 
1604.51  57210 57092 56780 56250 55634 55140 
1627.65  54705 54159 53581 53113 52577 51736 
1650.79  50634 49540 48437 46952 44596 41230 
1673.93  37607 34160 30399 26442 23295 20796 
1697.07  17412 12301 7570 4570 2718 1558 
1720.22  962 594 473 803 1201 1552 
1743.36  2340 3787 5875 8755 12839 17858 
1766.50  23262 28628 33618 37741 40969 43648 
1789.64  45944 47865 49540 51008 52228 53301 
1812.78  54470 55744 56963 58134 59371 60573 
1835.93  61536 62232 62789 63345 63900 64334 
1859.07  64576 64668 64732 64887 65123 65307 
1882.21  65359 65333 65320 65337 65347 65304 
1905.35  65176 64957 64660 64314 64028 63955 
1928.49  64118 64370 64575 64707 64795 64836 
1951.64  64780 64577 64202 63673 63066 62545 
1974.78  62294 62366 62650 62997 63336 63648 
1997.92  63907 64090 64184 64196 64145 64048 
2021.06  63910 63715 63437 63051 62554 61954 
2044.20  61249 60429 59505 58550 57753 57384 
2067.35  57598 58299 59216 60085 60746 61142 
2090.49  61281 61171 60819 60248 59533 58834 
2113.63  58365 58277 58557 59080 59715 60387 
2136.77  61066 61724 62327 62843 63265 63596 
2159.91  63845 64029 64165 64262 64328 64375 
2183.06  64416 64451 64474 64482 64485 64502 
2206.20  64545 64601 64646 64677 64698 64703 
2229.34  64686 64654 64616 64572 64520 64458 
2252.48  64390 64313 64224 64123 64002 63851 
2275.62  63657 63420 63331 63243 63154 63065 
2298.77  62976 62888 62799 62710 62621 62532 
2321.91  62444 62355 62266 62177 62089 62000 
2345.05  61911 61822 61734 61645 61556 61467 
2368.19  61378 61290 61201 61112 61023 60935 
2391.33  60984 60926 60794 60617 60443 60321 
2414.48  60283 60329 60439 60588 60754 60918 
2437.62  61072 61221 61370 61508 61618 61699 
2460.76  61757 61793 61792 61733 61595 61387 
2483.90  61171 61046 61075 61240 61464 61674 
2507.04  61841 61965 62046 62076 62061 62018 
2530.19  61970 61926 61888 61861 61848 61840 
2553.33  61818 61775 61712 61624 61497 61331 
2576.47  61140 60958 60814 60718 60653 60613 
2599.61  60603 60626 60662 60686 60693 60698 
2622.75  60702 60687 60646 60603 60581 60583 
2645.90  60594 60606 60614 60617 60614 60615 
2669.04  60626 60635 60625 60595 60562 60533 
2692.18  60503 60464 60410 60331 60221 60081 
2715.32  59911 59714 59501 59290 59089 58901 
2738.46  58725 58568 58453 58404 58417 58457 
2761.61  58485 58489 58472 58434 58361 58252 
2784.75  58114 57947 57726 57442 57098 56682 
2807.89  56170 55537 54745 53759 52582 51197 
2831.03  49540 47720 46338 46014 46730 47770 
2854.17  48407 48454 48095 47483 46632 45521 
2877.32  44162 42643 41129 39768 38563 37388 
2900.46  36145 34874 33649 32399 30943 29170 
2923.60  27122 24920 22697 20548 18541 16696 
2946.74  15005 13484 12451 12705 14996 19116 
2969.88  23860 27952 30868 32693 33668 33940 
2993.03  33629 32877 31909 31103 30886 31483 
3016.17  32743 34245 35581 36575 37344 38189 
3039.31  39383 40978 42793 44560 46079 47278 
3062.45  48197 48930 49540 50050 50440 50732 
3085.59  50950 51094 51148 51115 51036 51005 
3108.74  51112 51381 51757 52155 52514 52806 
3131.88  53024 53173 53258 53292 53295 53288 
3155.02  53286 53308 53372 53479 53596 53694 
3178.16  53764 53818 53865 53907 53948 53990 
3201.30  54030 54060 54077 54084 54084 54073 
3224.45  54041 53981 53896 53798 53695 53590 
3247.59  53482 53378 53291 53223 53160 53083 
3270.73  52992 52900 52801 52676 52526 52370 
3293.87  52230 52102 51985 51886 51821 51783 
3317.01  51752 51705 51636 51553 51476 51400 
3340.16  51310 51201 51074 50920 50750 50589 
3363.30  50457 50329 50162 49950 49733 49540 
3386.44  49343 49104 48796 48418 47962 47400 
3409.58  46707 45854 44820 43646 42476 41491 
3432.72  40812 40489 40521 40883 41481 42167 
3455.87  42803 43328 43740 44048 44249 44358 
3479.01  44401 44410 44390 44338 44241 44096 
3502.15  43911 43719 43539 43337 43047 42636 
3525.29  42176 41766 41415 41032 40540 39973 
3548.43  39431 38999 38640 38260 37868 37636 
3571.58  37685 37895 38143 38464 38934 39556 
3594.72  40285 41084 41871 42532 43039 43504 
3617.86  44031 44550 44959 45294 45686 46091 
3641.00  46380 46522 46662 47006 47532 48086 
3664.14  48527 48800 49047 49540 50192 50734 
3687.29  51087 51376 51736 52073 52244 52244 
3710.43  52212 52236 52274 52290 52252 52111 
3733.57  51899 51788 51830 51867 51832 51881 
3756.71  52057 52210 52268 52318 52415 52478 
3779.85  52451 52412 52427 52418 52286 52065 
3803.00  51955 52038 52136 52082 51880 51743 
3826.14  51785 51835 51679 51350 51155 51132 
3849.28  51035 50733 50438 50310 50206 50070 
3872.42  50057 50234 50443 50558 50605 50644 
3895.56  50624 50494 50357 50337 50340 50218 
3918.71  49980 49772 49667 49638 49648 49638 
3941.85  49535 49367 49265 49286 49360 49416 
3964.99  49442 49443 49431 49432 49455 49478 
3988.13  49491 49510 49535 49540 
##END= 
